ATF	1.0
7	3     
"AcquisitionMode=Gap Free"
"Comment="
"YTop=10000,1000"
"YBottom=-10000,-1000"
"SweepStartTimesMS=0.000"
"SignalsExported=Im_Scaled,10_mv"
"Signals="	"Im_Scaled"	"10_mv"
"Time (s)"	"Trace #1 (pA)"	"Trace #1 (mV)"
0	1335.14	19.6533
0.1	1327.82	19.7144
0.2	1323.85	19.8059
0.3	1322.63	19.7449
0.4	1322.02	19.7449
0.5	1321.11	19.7449
0.6	1319.58	19.7449
0.7	1320.8	19.6838
0.8	1323.85	19.6838
0.9	1319.27	19.6533
1	1314.39	19.5923
1.1	1310.12	19.6533
1.2	1314.7	19.6533
1.3	1322.02	19.7754
1.4	1328.43	19.7754
1.5	1329.35	19.7449
1.6	1324.16	19.6228
1.7	1318.05	19.6533
1.8	1318.36	19.6228
1.9	1319.58	19.5923
2	1319.89	19.6533
2.1	1321.41	19.5923
2.2	1319.27	19.7144
2.3	1318.05	19.6838
2.4	1316.83	19.7754
2.5	1318.05	19.7754
2.6	1322.33	19.7754
2.7	1326.6	19.7754
2.8	1328.13	19.6228
2.9	1327.21	19.6533
3	1324.46	19.5923
3.1	1327.51	19.6228
3.2	1332.09	19.7754
3.3	1332.09	19.7754
3.4	1335.75	19.7449
3.5	1336.98	19.6228
3.6	1330.57	19.7754
3.7	1329.96	19.7754
3.8	1328.74	19.6838
3.9	1330.57	19.5923
4	1332.09	19.8059
4.1	1325.68	19.7144
4.2	1325.68	19.6533
4.3	1329.96	19.8059
4.4	1329.35	19.6838
4.5	1328.43	19.6838
4.6	1331.48	19.7449
4.7	1330.26	19.8059
4.8	1329.35	19.5923
4.9	1329.65	19.8059
5	1325.99	19.7144
5.1	1325.99	19.7449
5.2	1329.04	19.7449
5.3	1329.65	19.6533
5.4	1332.09	19.6838
5.5	1330.26	19.7754
5.6	1321.72	19.8059
5.7	1319.58	19.6228
5.8	1322.63	19.6533
5.9	1325.38	19.5923
6	1324.16	19.6228
6.1	1322.02	19.7449
6.2	1321.11	19.6838
6.3	1320.8	19.7144
6.4	1318.66	19.7449
6.5	1322.33	19.7754
6.6	1327.82	19.7754
6.7	1322.02	19.7754
6.8	1322.94	19.6533
6.9	1325.99	19.6533
7	1325.68	19.8059
7.1	1322.94	19.7754
7.2	1320.19	19.7449
7.3	1317.75	19.6228
7.4	1315.92	19.8059
7.5	1314.7	19.6838
7.6	1314.39	19.6533
7.7	1318.66	19.7754
7.8	1322.63	19.8364
7.9	1321.72	19.7144
8	1322.02	19.5923
8.1	1324.46	19.8059
8.2	1326.29	19.5923
8.3	1321.11	19.7754
8.4	1317.44	19.5923
8.5	1319.27	19.8059
8.6	1324.46	19.6228
8.7	1327.82	19.7754
8.8	1325.07	19.6533
8.9	1324.16	19.8059
9	1318.97	19.7754
9.1	1318.05	19.5618
9.2	1322.94	19.8364
9.3	1328.13	19.6838
9.4	1329.04	19.6533
9.5	1327.21	19.7144
9.6	1323.85	19.6533
9.7	1321.41	19.7449
9.8	1320.5	19.6838
9.9	1319.89	19.7754
10	1320.8	19.7754
10.1	1323.85	19.6228
10.2	1327.82	14.6484
10.3	1215.21	14.801
10.4	906.982	14.7095
10.5	766.602	14.6179
10.6	768.433	14.74
10.7	770.264	14.74
10.8	771.484	14.6484
10.9	773.315	14.7705
11	773.01	14.679
11.1	771.79	14.6484
11.2	770.264	14.8315
11.3	768.738	14.6179
11.4	768.127	14.7095
11.5	769.653	14.7705
11.6	770.569	14.6484
11.7	771.484	14.74
11.8	771.179	14.7705
11.9	769.043	14.6179
12	769.653	14.801
12.1	770.264	14.7095
12.2	770.874	14.679
12.3	770.569	14.7705
12.4	771.179	14.679
12.5	770.569	14.679
12.6	768.738	14.74
12.7	767.822	14.679
12.8	764.771	14.6179
12.9	764.771	14.801
13	766.907	14.74
13.1	768.127	14.6484
13.2	768.433	14.6179
13.3	767.822	14.7095
13.4	765.991	14.7705
13.5	768.738	14.7705
13.6	769.043	14.7095
13.7	766.907	14.6484
13.8	770.264	14.7705
13.9	773.01	14.74
14	772.705	14.801
14.1	774.841	14.7095
14.2	775.452	14.7095
14.3	775.452	14.6484
14.4	774.231	14.6484
14.5	772.705	14.5569
14.6	775.146	14.6484
14.7	776.367	14.6179
14.8	773.926	14.6484
14.9	769.958	14.6179
15	769.043	14.6179
15.1	769.043	14.679
15.2	770.569	14.679
15.3	769.653	14.7705
15.4	770.264	14.7705
15.5	770.874	14.801
15.6	770.874	14.5874
15.7	772.095	14.7095
15.8	771.79	14.74
15.9	772.705	14.7705
16	774.536	14.6484
16.1	774.841	14.5874
16.2	771.79	14.6484
16.3	768.433	14.6179
16.4	768.738	14.7705
16.5	770.264	14.74
16.6	771.179	14.7705
16.7	769.958	14.7705
16.8	768.127	14.801
16.9	769.958	14.7705
17	770.264	14.7705
17.1	768.738	14.74
17.2	767.212	14.74
17.3	767.517	14.74
17.4	768.433	14.5874
17.5	768.127	14.6179
17.6	769.653	14.6179
17.7	770.264	14.6179
17.8	770.264	14.679
17.9	770.874	14.7705
18	770.874	14.74
18.1	768.433	14.801
18.2	769.958	14.7705
18.3	773.315	14.7705
18.4	773.01	14.7705
18.5	773.621	14.679
18.6	770.264	14.74
18.7	767.517	14.5569
18.8	765.686	14.6484
18.9	765.991	14.679
19	769.043	14.679
19.1	770.874	14.74
19.2	770.569	14.74
19.3	771.79	14.801
19.4	771.484	14.7705
19.5	771.484	14.7705
19.6	774.841	14.6484
19.7	775.757	14.6484
19.8	775.757	14.7095
19.9	775.757	14.801
20	773.01	14.74
20.1	770.874	14.7095
20.2	773.621	9.64355
20.3	719.91	9.61304
20.4	431.213	9.67407
20.5	213.928	9.73511
20.6	195.007	9.79614
20.7	196.838	9.76563
20.8	195.618	9.73511
20.9	195.618	9.61304
21	195.313	9.67407
21.1	194.397	9.70459
21.2	194.397	9.73511
21.3	193.787	9.79614
21.4	193.481	9.76563
21.5	193.481	9.79614
21.6	193.787	9.79614
21.7	193.787	9.76563
21.8	194.092	9.61304
21.9	194.397	9.73511
22	194.092	9.79614
22.1	194.397	9.70459
22.2	194.397	9.67407
22.3	194.092	9.64355
22.4	194.092	9.73511
22.5	194.092	9.76563
22.6	194.092	9.73511
22.7	194.092	9.64355
22.8	194.397	9.64355
22.9	194.397	9.73511
23	194.092	9.73511
23.1	193.787	9.82666
23.2	193.787	9.76563
23.3	194.092	9.76563
23.4	194.092	9.73511
23.5	193.481	9.58252
23.6	193.787	9.70459
23.7	193.787	9.76563
23.8	193.787	9.79614
23.9	194.397	9.61304
24	194.092	9.76563
24.1	193.176	9.79614
24.2	193.176	9.70459
24.3	192.871	9.64355
24.4	192.566	9.58252
24.5	191.65	9.67407
24.6	191.956	9.58252
24.7	191.956	9.67407
24.8	191.956	9.61304
24.9	191.65	9.61304
25	191.04	9.70459
25.1	191.345	9.70459
25.2	191.345	9.76563
25.3	191.65	9.73511
25.4	192.261	9.73511
25.5	192.261	9.82666
25.6	192.261	9.76563
25.7	192.566	9.79614
25.8	192.871	9.73511
25.9	193.176	9.73511
26	192.566	9.70459
26.1	192.871	9.67407
26.2	192.871	9.67407
26.3	192.566	9.58252
26.4	192.566	9.70459
26.5	192.871	9.70459
26.6	192.566	9.82666
26.7	191.956	9.76563
26.8	191.956	9.73511
26.9	191.956	9.70459
27	191.65	9.61304
27.1	191.345	9.79614
27.2	191.65	9.67407
27.3	192.566	9.64355
27.4	192.261	9.70459
27.5	192.261	9.76563
27.6	192.566	9.79614
27.7	193.176	9.73511
27.8	192.261	9.61304
27.9	191.345	9.70459
28	191.65	9.76563
28.1	191.04	9.82666
28.2	191.04	9.76563
28.3	191.65	9.79614
28.4	191.956	9.73511
28.5	192.566	9.64355
28.6	192.566	9.64355
28.7	191.65	9.70459
28.8	192.261	9.79614
28.9	192.261	9.73511
29	191.956	9.79614
29.1	191.65	9.67407
29.2	191.65	9.552
29.3	191.04	9.70459
29.4	191.04	9.58252
29.5	191.04	9.73511
29.6	191.04	9.79614
29.7	190.735	9.70459
29.8	190.735	9.73511
29.9	191.04	9.70459
30	191.345	9.70459
30.1	191.04	9.70459
30.2	191.345	9.64355
30.3	190.735	4.82178
30.4	121.46	4.79126
30.5	-173.95	4.85229
30.6	-367.737	4.69971
30.7	-379.028	4.66919
30.8	-378.418	4.69971
30.9	-380.859	4.79126
31	-381.47	4.85229
31.1	-380.554	4.79126
31.2	-380.859	4.82178
31.3	-382.08	4.76074
31.4	-381.47	4.66919
31.5	-381.47	4.63867
31.6	-380.554	4.66919
31.7	-380.554	4.82178
31.8	-380.859	4.85229
31.9	-380.554	4.79126
32	-380.249	4.79126
32.1	-380.554	4.66919
32.2	-380.249	4.69971
32.3	-380.859	4.63867
32.4	-380.249	4.69971
32.5	-379.944	4.82178
32.6	-381.165	4.85229
32.7	-381.47	4.85229
32.8	-381.47	4.79126
32.9	-381.165	4.76074
33	-381.165	4.73022
33.1	-380.859	4.57764
33.2	-381.47	4.69971
33.3	-381.47	4.63867
33.4	-380.249	4.69971
33.5	-379.639	4.73022
33.6	-379.333	4.66919
33.7	-379.944	4.66919
33.8	-381.165	4.63867
33.9	-381.165	4.69971
34	-380.554	4.66919
34.1	-379.639	4.63867
34.2	-379.333	4.69971
34.3	-379.639	4.63867
34.4	-381.165	4.63867
34.5	-380.249	4.66919
34.6	-378.723	4.60815
34.7	-379.333	4.73022
34.8	-380.554	4.73022
34.9	-379.639	4.79126
35	-379.639	4.79126
35.1	-379.944	4.79126
35.2	-380.554	4.82178
35.3	-380.554	4.85229
35.4	-380.249	4.82178
35.5	-381.165	4.85229
35.6	-380.249	4.82178
35.7	-380.859	4.76074
35.8	-381.47	4.76074
35.9	-381.47	4.73022
36	-382.08	4.79126
36.1	-382.08	4.76074
36.2	-382.08	4.82178
36.3	-384.521	4.79126
36.4	-385.742	4.82178
36.5	-383.911	4.76074
36.6	-382.08	4.76074
36.7	-382.69	4.76074
36.8	-382.08	4.69971
36.9	-380.554	4.82178
37	-380.554	4.82178
37.1	-381.165	4.82178
37.2	-381.165	4.85229
37.3	-381.775	4.66919
37.4	-384.216	4.66919
37.5	-384.827	4.76074
37.6	-383.606	4.82178
37.7	-384.521	4.85229
37.8	-384.521	4.79126
37.9	-384.827	4.76074
38	-383.911	4.76074
38.1	-383.911	4.63867
38.2	-384.521	4.69971
38.3	-384.827	4.73022
38.4	-384.216	4.79126
38.5	-384.521	4.82178
38.6	-383.911	4.85229
38.7	-384.827	4.82178
38.8	-384.827	4.76074
38.9	-384.216	4.79126
39	-385.132	4.63867
39.1	-385.437	4.66919
39.2	-384.216	4.69971
39.3	-384.521	4.69971
39.4	-384.827	4.79126
39.5	-383.606	4.79126
39.6	-383.301	4.79126
39.7	-383.606	4.76074
39.8	-383.301	4.69971
39.9	-383.606	4.73022
40	-385.132	4.60815
40.1	-385.437	4.66919
40.2	-384.827	4.69971
40.3	-385.437	-0.396729
40.4	-395.508	-0.305176
40.5	-574.036	-0.427246
40.6	-866.394	-0.305176
40.7	-950.928	-0.335693
40.8	-947.876	-0.396729
40.9	-949.097	-0.305176
41	-947.266	-0.305176
41.1	-945.129	-0.305176
41.2	-943.604	-0.213623
41.3	-943.298	-0.213623
41.4	-942.688	-0.213623
41.5	-944.214	-0.396729
41.6	-946.045	-0.335693
41.7	-946.655	-0.366211
41.8	-947.266	-0.183105
41.9	-947.876	-0.152588
42	-946.35	-0.244141
42.1	-946.96	-0.305176
42.2	-946.045	-0.244141
42.3	-946.655	-0.152588
42.4	-947.571	-0.244141
42.5	-948.181	-0.335693
42.6	-950.012	-0.213623
42.7	-947.266	-0.183105
42.8	-943.909	-0.213623
42.9	-942.078	-0.305176
43	-944.214	-0.213623
43.1	-945.129	-0.244141
43.2	-942.993	-0.244141
43.3	-943.909	-0.183105
43.4	-945.435	-0.274658
43.5	-945.74	-0.366211
43.6	-945.74	-0.244141
43.7	-945.129	-0.183105
43.8	-940.857	-0.213623
43.9	-941.467	-0.366211
44	-944.214	-0.183105
44.1	-941.772	-0.183105
44.2	-943.604	-0.335693
44.3	-944.214	-0.244141
44.4	-944.214	-0.152588
44.5	-947.266	-0.183105
44.6	-949.402	-0.244141
44.7	-947.571	-0.244141
44.8	-943.298	-0.335693
44.9	-943.604	-0.335693
45	-946.96	-0.305176
45.1	-946.96	-0.366211
45.2	-942.993	-0.366211
45.3	-941.162	-0.335693
45.4	-944.214	-0.366211
45.5	-947.876	-0.305176
45.6	-945.435	-0.366211
45.7	-942.078	-0.274658
45.8	-942.993	-0.274658
45.9	-946.96	-0.366211
46	-948.792	-0.335693
46.1	-945.74	-0.366211
46.2	-947.266	-0.305176
46.3	-948.181	-0.213623
46.4	-949.707	-0.244141
46.5	-951.843	-0.183105
46.6	-953.674	-0.183105
46.7	-955.2	-0.183105
46.8	-953.674	-0.183105
46.9	-953.369	-0.213623
47	-953.369	-0.213623
47.1	-948.486	-0.244141
47.2	-947.876	-0.305176
47.3	-947.571	-0.305176
47.4	-943.909	-0.335693
47.5	-942.993	-0.366211
47.6	-946.35	-0.213623
47.7	-950.012	-0.183105
47.8	-950.012	-0.244141
47.9	-947.266	-0.213623
48	-944.519	-0.274658
48.1	-945.74	-0.274658
48.2	-945.129	-0.274658
48.3	-944.519	-0.274658
48.4	-946.35	-0.244141
48.5	-946.655	-0.183105
48.6	-949.097	-0.183105
48.7	-950.623	-0.305176
48.8	-950.012	-0.366211
48.9	-948.486	-0.305176
49	-946.96	-0.335693
49.1	-947.571	-0.335693
49.2	-948.486	-0.244141
49.3	-949.402	-0.183105
49.4	-952.148	-0.183105
49.5	-951.233	-0.274658
49.6	-943.298	-0.305176
49.7	-943.604	-0.366211
49.8	-947.571	-0.244141
49.9	-946.045	-0.213623
50	-943.298	-0.152588
50.1	-944.214	-0.183105
50.2	-944.519	-5.21851
50.3	-1032.71	-5.27954
50.4	-1321.41	-5.27954
50.5	-1476.44	-5.24902
50.6	-1482.54	-5.12695
50.7	-1484.38	-5.27954
50.8	-1489.26	-5.34058
50.9	-1491.09	-5.15747
51	-1488.95	-5.21851
51.1	-1489.56	-5.24902
51.2	-1488.95	-5.27954
51.3	-1486.51	-5.27954
51.4	-1484.68	-5.24902
51.5	-1481.32	-5.18799
51.6	-1484.07	-5.15747
51.7	-1490.48	-5.24902
51.8	-1494.14	-5.27954
51.9	-1490.48	-5.15747
52	-1488.95	-5.12695
52.1	-1492	-5.37109
52.2	-1493.84	-5.24902
52.3	-1489.87	-5.12695
52.4	-1492	-5.18799
52.5	-1493.84	-5.24902
52.6	-1497.5	-5.31006
52.7	-1498.72	-5.09644
52.8	-1495.67	-5.27954
52.9	-1489.87	-5.15747
53	-1485.29	-5.27954
53.1	-1484.07	-5.15747
53.2	-1488.65	-5.31006
53.3	-1491.09	-5.18799
53.4	-1487.73	-5.21851
53.5	-1490.17	-5.31006
53.6	-1487.73	-5.12695
53.7	-1487.12	-5.31006
53.8	-1492.61	-5.24902
53.9	-1485.9	-5.15747
54	-1476.44	-5.31006
54.1	-1480.1	-5.21851
54.2	-1488.34	-5.15747
54.3	-1488.04	-5.21851
54.4	-1487.43	-5.27954
54.5	-1488.95	-5.18799
54.6	-1482.24	-5.31006
54.7	-1477.36	-5.18799
54.8	-1480.41	-5.18799
54.9	-1482.54	-5.15747
55	-1481.63	-5.24902
55.1	-1486.21	-5.31006
55.2	-1487.12	-5.18799
55.3	-1484.99	-5.15747
55.4	-1482.24	-5.34058
55.5	-1482.85	-5.24902
55.6	-1484.38	-5.18799
55.7	-1478.88	-5.15747
55.8	-1476.75	-5.27954
55.9	-1484.38	-5.31006
56	-1489.87	-5.12695
56.1	-1488.65	-5.24902
56.2	-1486.51	-5.24902
56.3	-1482.85	-5.09644
56.4	-1479.8	-5.31006
56.5	-1481.32	-5.21851
56.6	-1484.07	-5.18799
56.7	-1477.97	-5.31006
56.8	-1473.69	-5.12695
56.9	-1474.61	-5.27954
57	-1468.51	-5.18799
57.1	-1471.25	-5.31006
57.2	-1475.83	-5.12695
57.3	-1478.27	-5.34058
57.4	-1481.32	-5.09644
57.5	-1484.68	-5.21851
57.6	-1484.07	-5.21851
57.7	-1481.63	-5.12695
57.8	-1481.02	-5.24902
57.9	-1479.19	-5.37109
58	-1478.58	-5.18799
58.1	-1477.97	-5.15747
58.2	-1484.38	-5.18799
58.3	-1490.17	-5.27954
58.4	-1485.9	-5.27954
58.5	-1482.24	-5.15747
58.6	-1478.88	-5.18799
58.7	-1478.58	-5.37109
58.8	-1480.41	-5.12695
58.9	-1482.85	-5.21851
59	-1480.71	-5.40161
59.1	-1466.67	-5.15747
59.2	-1471.25	-5.12695
59.3	-1479.49	-5.37109
59.4	-1481.63	-5.15747
59.5	-1484.68	-5.18799
59.6	-1487.73	-5.34058
59.7	-1483.76	-5.15747
59.8	-1473.39	-5.31006
59.9	-1475.22	-5.21851
60	-1484.07	-5.18799
60.1	-1484.99	-10.2844
60.2	-1497.5	-10.1624
60.3	-1685.79	-10.2539
60.4	-1947.63	-10.1624
60.5	-1999.51	-10.2234
60.6	-1989.75	-10.1624
60.7	-2001.95	-10.2234
60.8	-1998.6	-10.1624
60.9	-1991.88	-10.1318
61	-1989.14	-10.2539
61.1	-1988.83	-10.1013
61.2	-1991.27	-10.2844
61.3	-1994.93	-10.1013
61.4	-2000.12	-10.2539
61.5	-1996.46	-10.1318
61.6	-1987	-10.3149
61.7	-1978.45	-10.1318
61.8	-1984.86	-10.2539
61.9	-2000.12	-10.1318
62	-2007.45	-10.2539
62.1	-2006.53	-10.1013
62.2	-2012.63	-10.2844
62.3	-2009.89	-10.1624
62.4	-2002.87	-10.1624
62.5	-2009.89	-10.2234
62.6	-2011.41	-10.1929
62.7	-2008.67	-10.0708
62.8	-2009.58	-10.2844
62.9	-1999.21	-10.1013
63	-1993.1	-10.2844
63.1	-1998.29	-10.1929
63.2	-2002.56	-10.1318
63.3	-2008.36	-10.2844
63.4	-2001.65	-10.1013
63.5	-1994.63	-10.1929
63.6	-2001.04	-10.2539
63.7	-1993.41	-10.1318
63.8	-1981.2	-10.2539
63.9	-1991.88	-10.2234
64	-1999.51	-10.1013
64.1	-1991.27	-10.3149
64.2	-1994.32	-10.1318
64.3	-1997.07	-10.2844
64.4	-2000.43	-10.1624
64.5	-2001.65	-10.2844
64.6	-2006.84	-10.1318
64.7	-2007.75	-10.3149
64.8	-1997.99	-10.1013
64.9	-1996.77	-10.2234
65	-2001.34	-10.1624
65.1	-1994.93	-10.2844
65.2	-1992.49	-10.1013
65.3	-1999.51	-10.3455
65.4	-2008.06	-10.1318
65.5	-2004.09	-10.1318
65.6	-2000.12	-10.2539
65.7	-2002.87	-10.1624
65.8	-2003.17	-10.2539
65.9	-2001.04	-10.1624
66	-2004.7	-10.3149
66.1	-2001.95	-10.0708
66.2	-2005.31	-10.2539
66.3	-2014.77	-10.2844
66.4	-2021.48	-10.1929
66.5	-2020.87	-10.1318
66.6	-2012.94	-10.1624
66.7	-2010.19	-10.2539
66.8	-2012.94	-10.3149
66.9	-2016.3	-10.2234
67	-2007.14	-10.1929
67.1	-2005.62	-10.1624
67.2	-2015.69	-10.1013
67.3	-2016.91	-10.1318
67.4	-2013.24	-10.2539
67.5	-2010.19	-10.1929
67.6	-2009.58	-10.1013
67.7	-2001.65	-10.2844
67.8	-1993.71	-10.1318
67.9	-1998.6	-10.1318
68	-2002.56	-10.2234
68.1	-2007.14	-10.3149
68.2	-2009.28	-10.2539
68.3	-2007.14	-10.2539
68.4	-2006.84	-10.2539
68.5	-2007.75	-10.1929
68.6	-2007.14	-10.1929
68.7	-2009.28	-10.1318
68.8	-2009.28	-10.1013
68.9	-2010.19	-10.1013
69	-2015.99	-10.1624
69.1	-2014.16	-10.1013
69.2	-2002.87	-10.1318
69.3	-2001.04	-10.1624
69.4	-2010.19	-10.1013
69.5	-2019.04	-10.1318
69.6	-2016.3	-10.1318
69.7	-2011.41	-10.1624
69.8	-2005.92	-10.2234
69.9	-2005.62	-10.2844
70	-2005	-10.2539
70.1	-2000.12	-10.2844
70.2	-2006.53	-10.3149
70.3	-2015.69	-15.2283
70.4	-2048.34	-15.2283
70.5	-2292.18	-15.1367
70.6	-2503.66	-15.1062
70.7	-2519.53	-15.1978
70.8	-2510.38	-15.1978
70.9	-2506.1	-15.1978
71	-2507.93	-15.2893
71.1	-2517.09	-15.1672
71.2	-2504.27	-15.1367
71.3	-2507.02	-15.2283
71.4	-2523.8	-15.2588
71.5	-2521.67	-15.1978
71.6	-2521.97	-15.1672
71.7	-2524.72	-15.1062
71.8	-2522.89	-15.0757
71.9	-2514.04	-15.1672
72	-2507.93	-15.1062
72.1	-2502.14	-15.1062
72.2	-2498.78	-15.1367
72.3	-2508.24	-15.1062
72.4	-2522.58	-15.1367
72.5	-2523.5	-15.1672
72.6	-2515.87	-15.1672
72.7	-2503.66	-15.1062
72.8	-2503.05	-15.1367
72.9	-2505.19	-15.1367
73	-2509.16	-15.1367
73.1	-2518.01	-15.1367
73.2	-2518.31	-15.1672
73.3	-2502.75	-15.1672
73.4	-2493.29	-15.1367
73.5	-2500	-15.1062
73.6	-2506.1	-15.1367
73.7	-2497.56	-15.1367
73.8	-2499.08	-15.1978
73.9	-2510.38	-15.2893
74	-2501.22	-15.2588
74.1	-2492.37	-15.2893
74.2	-2493.29	-15.2588
74.3	-2480.77	-15.2893
74.4	-2463.99	-15.2588
74.5	-2466.74	-15.1672
74.6	-2489.62	-15.1367
74.7	-2489.93	-15.1978
74.8	-2492.37	-15.1062
74.9	-2502.14	-15.1367
75	-2509.77	-15.2893
75.1	-2514.95	-15.2588
75.2	-2502.44	-15.1978
75.3	-2489.32	-15.2893
75.4	-2481.38	-15.2588
75.5	-2471.92	-15.2893
75.6	-2478.03	-15.2893
75.7	-2498.78	-15.1367
75.8	-2509.16	-15.1062
75.9	-2506.1	-15.1672
76	-2496.95	-15.2588
76.1	-2499.69	-15.2588
76.2	-2497.25	-15.3198
76.3	-2486.27	-15.2588
76.4	-2494.51	-15.1672
76.5	-2501.22	-15.1367
76.6	-2500.61	-15.1062
76.7	-2484.74	-15.2283
76.8	-2492.07	-15.2893
76.9	-2503.97	-15.0757
77	-2492.37	-15.1978
77.1	-2480.77	-15.2588
77.2	-2479.86	-15.1062
77.3	-2498.78	-15.1367
77.4	-2503.05	-15.2893
77.5	-2498.47	-15.1978
77.6	-2504.58	-15.1672
77.7	-2499.69	-15.1672
77.8	-2487.49	-15.1062
77.9	-2492.37	-15.1367
78	-2503.97	-15.1367
78.1	-2503.36	-15.2588
78.2	-2502.14	-15.1672
78.3	-2509.16	-15.1367
78.4	-2506.1	-15.1672
78.5	-2501.53	-15.3503
78.6	-2493.29	-15.2588
78.7	-2488.4	-15.0757
78.8	-2498.78	-15.1367
78.9	-2505.8	-15.2588
79	-2505.49	-15.2893
79.1	-2504.88	-15.2283
79.2	-2498.17	-15.1672
79.3	-2501.22	-15.1062
79.4	-2506.71	-15.1672
79.5	-2500	-15.1367
79.6	-2496.34	-15.0757
79.7	-2494.81	-15.2283
79.8	-2503.36	-15.2588
79.9	-2494.81	-15.1062
80	-2488.4	-15.2283
80.1	-2493.29	-15.1672
80.2	-2491.15	-20.1416
80.3	-2509.16	-20.2332
80.4	-2687.38	-20.2637
80.5	-2932.74	-20.1416
80.6	-2989.5	-20.2026
80.7	-2982.18	-20.2026
80.8	-2978.52	-20.1721
80.9	-2975.77	-20.1416
81	-2967.22	-20.1111
81.1	-2960.51	-20.3247
81.2	-2965.39	-20.1111
81.3	-2966.61	-20.2026
81.4	-2947.39	-20.2637
81.5	-2933.65	-20.1416
81.6	-2926.03	-20.1416
81.7	-2918.09	-20.2637
81.8	-2919.31	-20.1416
81.9	-2924.5	-20.2026
82	-2945.86	-20.2637
82.1	-2958.07	-20.1111
82.2	-2945.56	-20.2942
82.3	-2927.25	-20.2026
82.4	-2922.97	-20.1111
82.5	-2927.55	-20.2637
82.6	-2913.82	-20.2637
82.7	-2901.61	-20.1416
82.8	-2914.43	-20.1721
82.9	-2927.25	-20.2942
83	-2921.75	-20.2026
83.1	-2906.19	-20.1111
83.2	-2893.98	-20.1721
83.3	-2893.68	-20.2942
83.4	-2902.83	-20.1111
83.5	-2913.51	-20.1721
83.6	-2911.68	-20.2942
83.7	-2902.83	-20.1721
83.8	-2897.03	-20.1416
83.9	-2894.59	-20.1721
84	-2895.51	-20.2637
84.1	-2897.34	-20.1721
84.2	-2891.85	-20.1721
84.3	-2895.51	-20.3247
84.4	-2904.05	-20.1111
84.5	-2906.8	-20.05
84.6	-2909.55	-20.2637
84.7	-2908.02	-20.2637
84.8	-2911.99	-20.1416
84.9	-2921.75	-20.1111
85	-2924.19	-20.2637
85.1	-2930.91	-20.2942
85.2	-2930.91	-20.1721
85.3	-2918.7	-20.1111
85.4	-2896.42	-20.2332
85.5	-2886.96	-20.1721
85.6	-2893.98	-20.2026
85.7	-2908.33	-20.2026
85.8	-2924.8	-20.1416
85.9	-2920.53	-20.2942
86	-2907.41	-20.0806
86.1	-2910.16	-20.2637
86.2	-2918.4	-20.2637
86.3	-2906.49	-20.0806
86.4	-2905.58	-20.1416
86.5	-2912.29	-20.2332
86.6	-2908.63	-20.2637
