ATF	1.0
7	3     
"AcquisitionMode=Gap Free"
"Comment="
"YTop=10000,1000"
"YBottom=-10000,-1000"
"SweepStartTimesMS=0.000"
"SignalsExported=Im_Scaled,10_mv"
"Signals="	"Im_Scaled"	"10_mv"
"Time (s)"	"Trace #1 (pA)"	"Trace #1 (mV)"
0	1855.77	19.7754
0.1	1852.72	19.6533
0.2	1854.86	19.5923
0.3	1849.06	19.6838
0.4	1846.01	19.7754
0.5	1852.11	19.8059
0.6	1853.03	19.7144
0.7	1853.64	19.6838
0.8	1852.72	19.7449
0.9	1850.59	19.7449
1	1848.14	19.7754
1.1	1849.67	19.6533
1.2	1847.84	19.6838
1.3	1842.96	19.7754
1.4	1836.55	19.7449
1.5	1833.5	19.7449
1.6	1839.6	19.7144
1.7	1842.65	19.6228
1.8	1839.6	19.6838
1.9	1833.8	19.7449
2	1834.41	19.7449
2.1	1834.11	19.7144
2.2	1836.24	19.6533
2.3	1837.77	19.6533
2.4	1835.94	19.7144
2.5	1836.24	19.7449
2.6	1836.55	19.6533
2.7	1834.11	19.7754
2.8	1839.6	19.7754
2.9	1845.4	19.6838
3	1847.53	19.5618
3.1	1851.5	19.7144
3.2	1847.84	19.7754
3.3	1841.74	19.8059
3.4	1840.82	19.8059
3.5	1834.72	19.6838
3.6	1830.14	19.5923
3.7	1827.39	19.7144
3.8	1825.56	19.7754
3.9	1824.34	19.7754
4	1827.39	19.8059
4.1	1832.89	19.7449
4.2	1831.05	19.7449
4.3	1825.26	19.7449
4.4	1825.87	19.7144
4.5	1831.97	19.6533
4.6	1831.97	19.6228
4.7	1831.05	19.6838
4.8	1832.28	19.7754
4.9	1828.92	19.7449
5	1830.75	19.7754
5.1	1832.58	19.7144
5.2	1830.14	19.6838
5.3	1828.92	19.6228
5.4	1828	19.8059
5.5	1829.22	19.7754
5.6	1827.09	19.7449
5.7	1819.76	19.6533
5.8	1811.22	19.6228
5.9	1813.66	19.7754
6	1824.34	19.8364
6.1	1826.48	19.6838
6.2	1821.29	19.6838
6.3	1825.56	19.7449
6.4	1834.72	19.7754
6.5	1842.65	19.7449
6.6	1845.09	19.6838
6.7	1845.7	19.6533
6.8	1842.35	19.6228
6.9	1836.55	19.5923
7	1830.44	19.7144
7.1	1833.5	19.7144
7.2	1835.63	19.7754
7.3	1833.19	19.7449
7.4	1828.61	19.6838
7.5	1827.39	19.7144
7.6	1826.17	19.6533
7.7	1823.73	19.6228
7.8	1823.43	19.5923
7.9	1831.67	19.6228
8	1836.55	19.6838
8.1	1833.5	19.6838
8.2	1833.8	19.6533
8.3	1832.28	19.7449
8.4	1824.95	19.8059
8.5	1823.73	19.8364
8.6	1819.76	19.7449
8.7	1816.71	19.7449
8.8	1813.35	19.6228
8.9	1812.74	19.6228
9	1815.49	19.7754
9.1	1819.46	19.7754
9.2	1825.87	19.6838
9.3	1823.12	19.5618
9.4	1820.37	19.7449
9.5	1817.63	19.7754
9.6	1816.41	19.7754
9.7	1824.34	19.6228
9.8	1828.92	19.7449
9.9	1831.97	19.7754
10	1838.38	19.6838
10.1	1831.36	14.6179
10.2	1734.92	14.6484
10.3	1416.63	14.7705
10.4	1234.44	14.801
10.5	1227.72	14.7705
10.6	1227.42	14.6484
10.7	1222.53	14.6179
10.8	1221.92	14.74
10.9	1224.98	14.74
11	1227.72	14.6484
11.1	1228.03	14.6179
11.2	1227.42	14.6179
11.3	1227.11	14.7095
11.4	1228.64	14.801
11.5	1230.77	14.7705
11.6	1230.77	14.6179
11.7	1231.08	14.679
11.8	1231.99	14.74
11.9	1237.18	14.8315
12	1239.32	14.7095
12.1	1240.84	14.6484
12.2	1240.23	14.74
12.3	1238.4	14.7095
12.4	1239.93	14.801
12.5	1241.15	14.8315
12.6	1242.07	14.801
12.7	1243.59	14.7705
12.8	1242.98	14.74
12.9	1238.4	14.801
13	1235.66	14.801
13.1	1236.57	14.801
13.2	1234.44	14.801
13.3	1233.52	14.7705
13.4	1235.66	14.74
13.5	1237.79	14.679
13.6	1239.01	14.6179
13.7	1236.57	14.679
13.8	1235.35	14.801
13.9	1239.93	14.679
14	1240.23	14.6179
14.1	1235.66	14.801
14.2	1238.1	14.74
14.3	1241.15	14.6179
14.4	1240.23	14.6179
14.5	1239.32	14.801
14.6	1240.84	14.801
14.7	1240.54	14.679
14.8	1235.35	14.6179
14.9	1232.6	14.7705
15	1232.91	14.7705
15.1	1228.94	14.8315
15.2	1224.37	14.8315
15.3	1223.45	14.7705
15.4	1224.98	14.74
15.5	1228.94	14.6484
15.6	1232.3	14.6179
15.7	1231.38	14.6484
15.8	1228.94	14.7095
15.9	1227.42	14.7095
16	1229.55	14.7705
16.1	1232.91	14.801
16.2	1234.74	14.801
16.3	1233.83	14.7705
16.4	1233.83	14.74
16.5	1231.38	14.801
16.6	1231.69	14.801
16.7	1238.1	14.74
16.8	1242.37	14.7095
16.9	1240.54	14.6484
17	1239.32	14.6484
17.1	1239.93	14.6484
17.2	1237.49	14.6484
17.3	1236.27	14.7705
17.4	1237.49	14.7705
17.5	1239.32	14.679
17.6	1241.46	14.7705
17.7	1240.54	14.7095
17.8	1235.66	14.6179
17.9	1235.66	14.801
18	1237.18	14.8315
18.1	1236.88	14.6179
18.2	1235.66	14.7705
18.3	1236.57	14.74
18.4	1237.79	14.6484
18.5	1237.18	14.6179
18.6	1238.4	14.6484
18.7	1239.32	14.6484
18.8	1236.27	14.801
18.9	1232.91	14.7705
19	1233.22	14.74
19.1	1237.18	14.7095
19.2	1239.32	14.6484
19.3	1241.46	14.6179
19.4	1237.18	14.74
19.5	1233.83	14.801
19.6	1233.83	14.679
19.7	1234.44	14.6484
19.8	1233.52	14.6484
19.9	1231.99	14.6484
20	1233.22	14.5874
20.1	1234.13	14.5874
20.2	1235.05	9.73511
20.3	1202.09	9.73511
20.4	924.072	9.79614
20.5	643.616	9.76563
20.6	603.638	9.70459
20.7	607.91	9.73511
20.8	604.858	9.64355
20.9	608.215	9.64355
21	609.436	9.73511
21.1	608.826	9.79614
21.2	610.352	9.70459
21.3	610.657	9.64355
21.4	609.131	9.73511
21.5	607.605	9.76563
21.6	606.689	9.79614
21.7	607.3	9.70459
21.8	609.131	9.61304
21.9	610.657	9.67407
22	611.572	9.79614
22.1	609.741	9.79614
22.2	608.215	9.67407
22.3	607.605	9.73511
22.4	606.995	9.76563
22.5	606.995	9.70459
22.6	608.826	9.64355
22.7	608.521	9.79614
22.8	606.384	9.70459
22.9	606.384	9.58252
23	608.521	9.76563
23.1	609.741	9.79614
23.2	609.741	9.64355
23.3	608.215	9.76563
23.4	606.079	9.61304
23.5	605.469	9.64355
23.6	606.079	9.79614
23.7	606.079	9.79614
23.8	606.995	9.76563
23.9	607.605	9.70459
24	606.995	9.73511
24.1	606.995	9.76563
24.2	606.995	9.73511
24.3	605.469	9.76563
24.4	603.943	9.76563
24.5	604.553	9.82666
24.6	605.469	9.79614
24.7	604.553	9.79614
24.8	606.079	9.70459
24.9	606.689	9.70459
25	606.689	9.70459
25.1	606.995	9.61304
25.2	608.826	9.64355
25.3	608.826	9.61304
25.4	607.3	9.73511
25.5	606.079	9.79614
25.6	606.689	9.70459
25.7	607.3	9.64355
25.8	607.91	9.73511
25.9	607.3	9.76563
26	606.384	9.76563
26.1	605.774	9.67407
26.2	603.333	9.61304
26.3	602.722	9.73511
26.4	600.891	9.85718
26.5	599.67	9.70459
26.6	601.807	9.64355
26.7	604.248	9.73511
26.8	603.943	9.64355
26.9	603.027	9.76563
27	603.638	9.76563
27.1	602.722	9.70459
27.2	601.501	9.76563
27.3	600.891	9.64355
27.4	601.196	9.73511
27.5	601.807	9.73511
27.6	602.722	9.61304
27.7	603.943	9.70459
27.8	603.333	9.79614
27.9	602.112	9.70459
28	603.027	9.61304
28.1	602.112	9.76563
28.2	600.586	9.79614
28.3	600.891	9.73511
28.4	603.333	9.58252
28.5	601.501	9.73511
28.6	601.807	9.79614
28.7	602.417	9.79614
28.8	601.196	9.73511
28.9	600.586	9.64355
29	601.501	9.61304
29.1	602.722	9.61304
29.2	602.417	9.64355
29.3	600.891	9.67407
29.4	598.45	9.67407
29.5	598.145	9.76563
29.6	600.891	9.82666
29.7	602.112	9.76563
29.8	602.417	9.73511
29.9	602.722	9.58252
30	603.333	9.67407
30.1	603.638	4.85229
30.2	594.788	4.79126
30.3	407.715	4.63867
30.4	70.4956	4.66919
30.5	-34.4849	4.82178
30.6	-29.9072	4.85229
30.7	-32.3486	4.69971
30.8	-32.6538	4.76074
30.9	-32.6538	4.82178
31	-32.959	4.82178
31.1	-32.3486	4.66919
31.2	-32.6538	4.69971
31.3	-33.2642	4.76074
31.4	-32.6538	4.79126
31.5	-32.6538	4.63867
31.6	-32.6538	4.69971
31.7	-33.2642	4.69971
31.8	-33.2642	4.73022
31.9	-32.6538	4.79126
32	-32.959	4.73022
32.1	-32.959	4.66919
32.2	-33.5693	4.60815
32.3	-33.2642	4.66919
32.4	-33.5693	4.69971
32.5	-33.5693	4.79126
32.6	-33.5693	4.82178
32.7	-33.8745	4.66919
32.8	-34.1797	4.63867
32.9	-33.8745	4.73022
33	-34.4849	4.76074
33.1	-33.8745	4.82178
33.2	-34.1797	4.79126
33.3	-34.1797	4.85229
33.4	-34.4849	4.79126
33.5	-34.4849	4.76074
33.6	-34.1797	4.66919
33.7	-34.1797	4.60815
33.8	-33.8745	4.63867
33.9	-34.1797	4.66919
34	-34.1797	4.63867
34.1	-33.8745	4.60815
34.2	-34.1797	4.63867
34.3	-34.1797	4.85229
34.4	-34.1797	4.82178
34.5	-34.1797	4.69971
34.6	-34.1797	4.63867
34.7	-34.1797	4.79126
34.8	-34.4849	4.85229
34.9	-34.1797	4.69971
35	-34.1797	4.63867
35.1	-34.4849	4.82178
35.2	-34.4849	4.73022
35.3	-34.1797	4.63867
35.4	-34.4849	4.63867
35.5	-34.4849	4.69971
35.6	-34.4849	4.73022
35.7	-34.79	4.76074
35.8	-34.79	4.82178
35.9	-35.0952	4.82178
36	-35.0952	4.79126
36.1	-34.79	4.66919
36.2	-35.0952	4.60815
36.3	-35.4004	4.63867
36.4	-35.0952	4.69971
36.5	-36.0107	4.85229
36.6	-35.7056	4.85229
36.7	-35.4004	4.69971
36.8	-35.4004	4.63867
36.9	-35.4004	4.66919
37	-35.4004	4.69971
37.1	-35.7056	4.69971
37.2	-35.4004	4.66919
37.3	-35.4004	4.69971
37.4	-35.4004	4.73022
37.5	-35.7056	4.79126
37.6	-35.4004	4.76074
37.7	-36.0107	4.79126
37.8	-36.0107	4.85229
37.9	-36.3159	4.82178
38	-36.3159	4.85229
38.1	-36.3159	4.63867
38.2	-36.3159	4.66919
38.3	-36.6211	4.66919
38.4	-36.6211	4.76074
38.5	-36.9263	4.82178
38.6	-36.6211	4.79126
38.7	-36.9263	4.85229
38.8	-36.6211	4.82178
38.9	-36.6211	4.73022
39	-36.6211	4.66919
39.1	-36.3159	4.63867
39.2	-36.6211	4.76074
39.3	-36.9263	4.76074
39.4	-37.2314	4.79126
39.5	-37.2314	4.79126
39.6	-37.2314	4.85229
39.7	-37.5366	4.82178
39.8	-37.2314	4.82178
39.9	-37.2314	4.79126
40	-37.5366	4.85229
40.1	-38.147	4.85229
40.2	-39.6729	-0.213623
40.3	-148.315	-0.274658
40.4	-488.586	-0.274658
40.5	-662.537	-0.274658
40.6	-664.063	-0.274658
40.7	-665.588	-0.335693
40.8	-667.419	-0.274658
40.9	-666.809	-0.335693
41	-665.588	-0.366211
41.1	-664.978	-0.305176
41.2	-667.725	-0.183105
41.3	-668.335	-0.213623
41.4	-666.809	-0.152588
41.5	-663.757	-0.274658
41.6	-664.368	-0.305176
41.7	-665.894	-0.366211
41.8	-666.809	-0.335693
41.9	-666.504	-0.305176
42	-666.809	-0.244141
42.1	-668.335	-0.244141
42.2	-668.64	-0.305176
42.3	-667.725	-0.305176
42.4	-666.199	-0.366211
42.5	-667.114	-0.335693
42.6	-668.945	-0.335693
42.7	-668.945	-0.305176
42.8	-669.25	-0.274658
42.9	-668.03	-0.183105
43	-667.419	-0.274658
43.1	-668.945	-0.335693
43.2	-671.692	-0.305176
43.3	-671.387	-0.183105
43.4	-671.082	-0.152588
43.5	-669.25	-0.183105
43.6	-669.556	-0.244141
43.7	-671.082	-0.366211
43.8	-671.387	-0.366211
43.9	-671.692	-0.305176
44	-671.082	-0.305176
44.1	-670.166	-0.335693
44.2	-668.335	-0.274658
44.3	-667.419	-0.274658
44.4	-665.283	-0.183105
44.5	-663.147	-0.183105
44.6	-663.452	-0.274658
44.7	-665.588	-0.305176
44.8	-666.504	-0.213623
44.9	-665.894	-0.152588
45	-664.063	-0.152588
45.1	-663.452	-0.274658
45.2	-664.368	-0.305176
45.3	-664.673	-0.335693
45.4	-665.588	-0.366211
45.5	-666.199	-0.366211
45.6	-666.504	-0.396729
45.7	-666.809	-0.366211
45.8	-668.03	-0.274658
45.9	-668.03	-0.274658
46	-666.809	-0.213623
46.1	-666.199	-0.274658
46.2	-667.114	-0.335693
46.3	-669.25	-0.305176
46.4	-671.387	-0.274658
46.5	-670.471	-0.305176
46.6	-668.64	-0.366211
46.7	-666.809	-0.366211
46.8	-666.809	-0.274658
46.9	-668.945	-0.274658
47	-668.335	-0.335693
47.1	-668.945	-0.244141
47.2	-670.776	-0.305176
47.3	-671.692	-0.244141
47.4	-672.913	-0.244141
47.5	-672.913	-0.152588
47.6	-671.387	-0.183105
47.7	-669.861	-0.213623
47.8	-669.861	-0.183105
47.9	-671.082	-0.152588
48	-669.861	-0.183105
48.1	-670.471	-0.183105
48.2	-673.218	-0.244141
48.3	-674.133	-0.213623
48.4	-673.523	-0.183105
48.5	-671.997	-0.244141
48.6	-671.997	-0.305176
48.7	-671.387	-0.335693
48.8	-669.861	-0.366211
48.9	-669.556	-0.366211
49	-669.25	-0.305176
49.1	-670.166	-0.244141
49.2	-668.64	-0.305176
49.3	-668.64	-0.213623
49.4	-670.166	-0.213623
49.5	-671.692	-0.213623
49.6	-670.471	-0.305176
49.7	-668.945	-0.335693
49.8	-671.692	-0.274658
49.9	-673.828	-0.274658
50	-671.692	-0.244141
50.1	-673.828	-5.15747
50.2	-761.108	-5.12695
50.3	-1082.76	-5.09644
50.4	-1275.02	-5.15747
50.5	-1283.87	-5.24902
50.6	-1283.26	-5.24902
50.7	-1282.96	-5.31006
50.8	-1281.13	-5.21851
50.9	-1279.6	-5.18799
51	-1278.38	-5.18799
51.1	-1278.69	-5.27954
51.2	-1277.77	-5.27954
51.3	-1276.86	-5.21851
51.4	-1277.47	-5.15747
51.5	-1277.47	-5.12695
51.6	-1275.94	-5.15747
51.7	-1277.47	-5.18799
51.8	-1277.47	-5.12695
51.9	-1275.63	-5.15747
52	-1277.47	-5.15747
52.1	-1277.47	-5.15747
52.2	-1279.3	-5.15747
52.3	-1278.69	-5.15747
52.4	-1275.02	-5.12695
52.5	-1275.63	-5.12695
52.6	-1280.82	-5.15747
52.7	-1280.52	-5.18799
52.8	-1273.5	-5.21851
52.9	-1272.89	-5.18799
53	-1275.33	-5.31006
53.1	-1272.28	-5.34058
53.2	-1273.8	-5.24902
53.3	-1272.58	-5.24902
53.4	-1270.45	-5.15747
53.5	-1270.14	-5.15747
53.6	-1273.5	-5.15747
53.7	-1277.77	-5.18799
53.8	-1280.21	-5.18799
53.9	-1280.82	-5.15747
54	-1277.47	-5.12695
54.1	-1272.28	-5.12695
54.2	-1271.36	-5.18799
54.3	-1272.28	-5.21851
54.4	-1274.72	-5.27954
54.5	-1277.77	-5.27954
54.6	-1282.04	-5.34058
54.7	-1280.52	-5.31006
54.8	-1277.77	-5.34058
54.9	-1278.38	-5.27954
55	-1276.86	-5.34058
55.1	-1274.72	-5.34058
55.2	-1276.86	-5.34058
55.3	-1274.11	-5.27954
55.4	-1272.89	-5.31006
55.5	-1275.33	-5.27954
55.6	-1275.33	-5.27954
55.7	-1271.97	-5.27954
55.8	-1268.92	-5.27954
55.9	-1270.14	-5.18799
56	-1275.02	-5.24902
56.1	-1274.41	-5.15747
56.2	-1268.62	-5.18799
56.3	-1265.26	-5.18799
56.4	-1265.56	-5.15747
56.5	-1265.26	-5.24902
56.6	-1265.56	-5.24902
56.7	-1267.7	-5.27954
56.8	-1268.31	-5.34058
56.9	-1265.56	-5.34058
57	-1261.29	-5.31006
57.1	-1259.16	-5.27954
57.2	-1261.9	-5.27954
57.3	-1265.87	-5.21851
57.4	-1272.28	-5.15747
57.5	-1273.8	-5.15747
57.6	-1274.11	-5.18799
57.7	-1273.5	-5.34058
57.8	-1270.14	-5.27954
57.9	-1269.23	-5.27954
58	-1272.28	-5.34058
58.1	-1271.97	-5.27954
58.2	-1267.7	-5.24902
58.3	-1265.26	-5.31006
58.4	-1266.17	-5.21851
58.5	-1267.7	-5.21851
58.6	-1272.89	-5.15747
58.7	-1278.38	-5.21851
58.8	-1275.94	-5.24902
58.9	-1270.45	-5.27954
59	-1273.19	-5.27954
59.1	-1278.69	-5.27954
59.2	-1276.55	-5.31006
59.3	-1272.89	-5.34058
59.4	-1270.14	-5.24902
59.5	-1272.58	-5.18799
59.6	-1280.82	-5.15747
59.7	-1282.65	-5.18799
59.8	-1280.52	-5.18799
59.9	-1280.52	-5.21851
60	-1282.96	-5.31006
60.1	-1286.01	-10.2844
60.2	-1293.64	-10.3149
60.3	-1477.05	-10.2844
60.4	-1783.75	-10.2234
60.5	-1864.32	-10.1929
60.6	-1855.16	-10.1929
60.7	-1860.35	-10.1318
60.8	-1865.84	-10.0708
60.9	-1860.66	-10.1013
61	-1856.99	-10.1929
61.1	-1858.52	-10.3149
61.2	-1864.01	-10.3149
61.3	-1870.12	-10.2234
61.4	-1868.59	-10.3149
61.5	-1860.96	-10.2844
61.6	-1857.6	-10.2539
61.7	-1858.52	-10.1624
61.8	-1859.44	-10.1318
61.9	-1857.3	-10.1318
62	-1860.35	-10.1318
62.1	-1863.71	-10.1318
62.2	-1863.4	-10.1624
62.3	-1860.96	-10.1929
62.4	-1864.93	-10.2234
62.5	-1871.03	-10.3455
62.6	-1868.29	-10.2844
62.7	-1867.68	-10.2539
62.8	-1868.9	-10.1929
62.9	-1862.49	-10.1929
63	-1856.99	-10.1624
63.1	-1856.69	-10.1013
63.2	-1854.55	-10.1318
63.3	-1854.25	-10.1318
63.4	-1858.22	-10.3149
63.5	-1857.6	-10.2844
63.6	-1853.64	-10.2844
63.7	-1857.91	-10.2539
63.8	-1863.4	-10.2539
63.9	-1865.23	-10.2539
64	-1863.1	-10.2234
64.1	-1857.6	-10.2539
64.2	-1854.86	-10.3455
64.3	-1858.22	-10.2844
64.4	-1858.83	-10.2844
64.5	-1855.16	-10.2844
64.6	-1852.42	-10.3149
64.7	-1853.64	-10.3455
64.8	-1860.35	-10.2844
64.9	-1858.52	-10.2539
65	-1858.22	-10.1929
65.1	-1860.66	-10.1929
65.2	-1854.55	-10.1013
65.3	-1846.92	-10.1318
65.4	-1844.48	-10.1624
65.5	-1848.14	-10.2234
65.6	-1847.53	-10.2539
65.7	-1849.98	-10.1929
65.8	-1850.59	-10.2844
65.9	-1849.98	-10.2539
66	-1849.98	-10.1624
66.1	-1849.67	-10.1318
66.2	-1850.89	-10.1013
66.3	-1851.5	-10.1318
66.4	-1851.5	-10.1929
66.5	-1850.28	-10.1624
66.6	-1844.79	-10.1318
66.7	-1844.18	-10.1624
66.8	-1838.99	-10.3149
66.9	-1838.99	-10.3149
67	-1842.65	-10.2844
67.1	-1842.96	-10.2844
67.2	-1849.67	-10.2234
67.3	-1854.55	-10.1929
67.4	-1856.69	-10.1318
67.5	-1860.35	-10.1318
67.6	-1853.03	-10.1624
67.7	-1846.01	-10.1318
67.8	-1848.75	-10.1929
67.9	-1855.47	-10.1318
68	-1853.03	-10.1013
68.1	-1845.4	-10.1318
68.2	-1848.45	-10.2844
68.3	-1855.16	-10.2844
68.4	-1865.23	-10.1318
68.5	-1867.37	-10.1013
68.6	-1860.96	-10.2539
68.7	-1854.55	-10.2539
68.8	-1852.72	-10.1318
68.9	-1850.59	-10.1318
69	-1853.33	-10.1624
69.1	-1860.05	-10.2844
69.2	-1857.6	-10.3455
69.3	-1860.35	-10.2234
69.4	-1861.57	-10.1013
69.5	-1856.38	-10.1624
69.6	-1852.42	-10.2539
69.7	-1847.84	-10.2844
69.8	-1846.31	-10.1929
69.9	-1843.57	-10.0708
70	-1844.79	-10.1929
70.1	-1850.89	-10.2844
70.2	-1853.94	-10.2539
70.3	-1854.86	-15.1367
70.4	-1936.65	-15.1062
70.5	-2228.39	-15.1672
70.6	-2391.66	-15.2283
70.7	-2395.94	-15.2283
70.8	-2401.43	-15.1367
70.9	-2408.75	-15.1978
71	-2419.43	-15.2588
71.1	-2416.08	-15.1978
71.2	-2403.87	-15.0757
71.3	-2397.77	-15.3503
71.4	-2411.19	-15.1978
71.5	-2417.91	-15.0757
71.6	-2421.26	-15.1062
71.7	-2418.21	-15.1062
71.8	-2403.87	-15.1367
71.9	-2395.02	-15.1978
72	-2388.92	-15.2588
72.1	-2392.27	-15.2893
72.2	-2398.07	-15.2283
72.3	-2400.51	-15.1367
72.4	-2393.49	-15.1367
72.5	-2390.75	-15.1367
72.6	-2398.99	-15.1978
72.7	-2398.99	-15.2893
72.8	-2392.88	-15.1367
72.9	-2387.08	-15.1367
73	-2380.68	-15.1978
73.1	-2380.37	-15.2588
73.2	-2378.85	-15.2588
73.3	-2381.9	-15.1062
73.4	-2382.81	-15.1672
73.5	-2372.74	-15.3198
73.6	-2368.16	-15.2283
73.7	-2368.77	-15.1062
73.8	-2364.81	-15.1978
73.9	-2361.45	-15.2893
74	-2369.38	-15.1672
74.1	-2376.4	-15.1367
74.2	-2381.9	-15.1062
74.3	-2376.1	-15.1367
74.4	-2367.55	-15.1672
74.5	-2369.38	-15.2588
74.6	-2371.52	-15.2588
74.7	-2367.25	-15.2893
74.8	-2373.96	-15.2893
74.9	-2384.34	-15.2588
75	-2391.36	-15.2893
75.1	-2393.8	-15.2588
75.2	-2390.44	-15.1978
75.3	-2374.57	-15.1367
75.4	-2359.92	-15.1367
75.5	-2359.01	-15.1672
75.6	-2371.52	-15.1062
75.7	-2373.05	-15.0757
75.8	-2373.05	-15.1367
75.9	-2385.56	-15.1367
76	-2378.85	-15.1672
76.1	-2371.22	-15.1367
76.2	-2380.37	-15.1672
76.3	-2375.18	-15.1672
76.4	-2363.28	-15.1978
76.5	-2365.11	-15.2588
76.6	-2379.15	-15.3198
76.7	-2385.86	-15.2588
76.8	-2372.13	-15.2893
76.9	-2366.64	-15.2283
77	-2374.27	-15.2893
77.1	-2377.32	-15.2588
77.2	-2364.81	-15.1978
77.3	-2362.37	-15.1367
77.4	-2363.59	-15.1672
77.5	-2363.59	-15.1367
77.6	-2365.72	-15.1367
77.7	-2366.94	-15.1978
77.8	-2364.81	-15.2588
77.9	-2364.5	-15.2283
78	-2361.45	-15.2893
78.1	-2363.28	-15.2588
78.2	-2361.45	-15.2588
78.3	-2357.79	-15.1672
78.4	-2362.67	-15.1367
78.5	-2359.01	-15.1367
78.6	-2350.16	-15.2588
78.7	-2347.11	-15.3198
78.8	-2351.99	-15.2893
78.9	-2362.06	-15.1978
79	-2361.76	-15.1672
79.1	-2365.11	-15.1062
79.2	-2364.81	-15.0757
79.3	-2350.16	-15.1062
79.4	-2343.44	-15.2588
79.5	-2345.58	-15.2893
79.6	-2353.82	-15.2283
79.7	-2355.65	-15.2283
79.8	-2352.6	-15.2588
79.9	-2350.77	-15.2588
80	-2351.07	-15.3198
80.1	-2359.92	-20.2637
80.2	-2385.56	-20.2026
80.3	-2596.44	-20.2637
80.4	-2825.01	-20.2637
80.5	-2853.39	-20.2942
80.6	-2836.91	-20.2332
80.7	-2836	-20.2026
80.8	-2842.41	-20.1721
80.9	-2843.32	-20.1721
81	-2842.1	-20.1721
81.1	-2826.23	-20.1416
81.2	-2812.81	-20.1111
81.3	-2821.35	-20.1416
81.4	-2827.45	-20.1416
81.5	-2839.66	-20.1111
81.6	-2840.88	-20.1416
81.7	-2840.58	-20.1111
81.8	-2836.3	-20.1721
81.9	-2843.32	-20.1416
82	-2850.04	-20.1721
82.1	-2839.97	-20.2332
82.2	-2836.91	-20.2026
82.3	-2830.2	-20.2332
82.4	-2830.81	-20.2026
82.5	-2834.78	-20.2026
82.6	-2833.86	-20.1416
82.7	-2836	-20.1416
82.8	-2834.17	-20.2026
82.9	-2837.83	-20.2637
83	-2847.6	-20.3552
83.1	-2839.66	-20.3247
83.2	-2823.49	-20.3247
83.3	-2818.91	-20.2942
83.4	-2814.94	-20.2332
83.5	-2823.49	-20.2637
83.6	-2836.91	-20.2332
83.7	-2846.98	-20.2332
83.8	-2856.75	-20.2026
83.9	-2865.6	-20.2637
84	-2863.16	-20.2942
84.1	-2850.34	-20.2332
84.2	-2849.43	-20.2637
84.3	-2834.47	-20.2637
84.4	-2815.55	-20.2942
84.5	-2809.45	-20.3247
84.6	-2819.21	-20.2332
84.7	-2826.54	-20.2026
84.8	-2823.18	-20.1721
84.9	-2814.94	-20.1721
85	-2807.92	-20.3247
85.1	-2812.81	-20.2637
85.2	-2828.37	-20.2637
85.3	-2837.22	-20.1111
85.4	-2853.09	-20.1111
85.5	-2866.52	-20.1111
85.6	-2858.28	-20.1111
85.7	-2836.91	-20.1416
85.8	-2811.28	-20.1111
85.9	-2789.31	-20.2026
86	-2785.03	-20.2637
86.1	-2786.25	-20.2332
86.2	-2803.65	-20.1416
86.3	-2814.03	-20.1416
86.4	-2804.26	-20.3247
86.5	-2806.7	-20.2026
