ATF	1.0
7	3     
"AcquisitionMode=Gap Free"
"Comment="
"YTop=10000,1000"
"YBottom=-10000,-1000"
"SweepStartTimesMS=0.000"
"SignalsExported=Im_Scaled,10_mv"
"Signals="	"Im_Scaled"	"10_mv"
"Time (s)"	"Trace #1 (pA)"	"Trace #1 (mV)"
0	1126.4	19.8059
0.1	1122.74	19.7449
0.2	1122.13	19.8059
0.3	1123.96	19.7449
0.4	1126.4	19.6533
0.5	1127.01	19.6838
0.6	1127.32	19.7754
0.7	1130.98	19.7449
0.8	1130.98	19.7449
0.9	1127.62	19.6228
1	1128.23	19.8059
1.1	1128.23	19.7449
1.2	1123.96	19.6533
1.3	1122.13	19.8059
1.4	1124.88	19.7754
1.5	1127.01	19.6228
1.6	1122.13	19.8364
1.7	1118.16	19.5923
1.8	1117.25	19.7144
1.9	1120.3	19.8059
2	1124.27	19.6838
2.1	1122.74	19.6533
2.2	1121.83	19.7449
2.3	1131.29	19.7754
2.4	1136.47	19.6533
2.5	1136.78	19.7754
2.6	1137.7	19.7144
2.7	1134.03	19.6533
2.8	1132.81	19.7449
2.9	1131.29	19.7754
3	1126.1	19.6228
3.1	1126.1	19.8364
3.2	1130.68	19.6838
3.3	1130.68	19.7754
3.4	1126.4	19.7754
3.5	1126.71	19.6838
3.6	1128.54	19.6838
3.7	1128.54	19.8059
3.8	1127.93	19.6533
3.9	1129.46	19.7449
4	1131.59	19.8059
4.1	1133.42	19.6228
4.2	1134.95	19.7449
4.3	1136.78	19.7754
4.4	1131.59	19.6533
4.5	1126.71	19.7754
4.6	1125.18	19.6533
4.7	1121.83	19.7754
4.8	1120.91	19.6533
4.9	1123.96	19.7449
5	1130.07	19.8059
5.1	1130.37	19.6228
5.2	1126.4	19.7754
5.3	1127.01	19.6228
5.4	1130.98	19.7754
5.5	1134.64	19.6838
5.6	1134.34	19.8364
5.7	1136.17	19.5923
5.8	1138.92	19.7449
5.9	1138.31	19.8059
6	1137.08	19.6228
6.1	1141.05	19.8059
6.2	1142.58	19.6228
6.3	1138.61	19.7754
6.4	1134.95	19.7754
6.5	1131.29	19.6228
6.6	1128.23	19.8364
6.7	1130.98	19.6228
6.8	1131.9	19.7144
6.9	1130.37	19.7449
7	1134.34	19.7144
7.1	1140.75	19.7449
7.2	1140.44	19.6838
7.3	1136.47	19.7144
7.4	1138.31	19.7449
7.5	1140.75	19.7449
7.6	1139.83	19.7144
7.7	1138.61	19.7449
7.8	1137.7	19.7144
7.9	1139.22	19.6838
8	1141.97	19.7754
8.1	1142.58	19.6838
8.2	1146.24	19.7144
8.3	1147.16	19.7449
8.4	1147.16	19.6533
8.5	1145.32	19.7449
8.6	1141.05	19.6533
8.7	1139.53	19.7449
8.8	1141.97	19.6838
8.9	1144.41	19.6228
9	1142.88	19.8059
9.1	1142.88	19.6838
9.2	1141.66	19.7754
9.3	1141.66	19.6228
9.4	1139.22	19.7754
9.5	1137.7	19.7754
9.6	1139.53	19.6838
9.7	1142.27	19.8059
9.8	1143.19	19.6533
9.9	1140.44	19.8059
10	1138.92	19.7144
10.1	1134.95	19.7449
10.2	1135.56	14.7095
10.3	1033.94	14.74
10.4	744.324	14.801
10.5	608.521	14.679
10.6	606.079	14.7705
10.7	603.638	14.6179
10.8	601.501	14.74
10.9	603.333	14.801
11	604.248	14.679
11.1	605.469	14.7095
11.2	606.995	14.7095
11.3	605.774	14.7095
11.4	604.553	14.7705
11.5	603.638	14.6484
11.6	603.638	14.7705
11.7	606.384	14.6484
11.8	606.079	14.7705
11.9	607.605	14.6484
12	609.131	14.7095
12.1	610.657	14.7095
12.2	610.352	14.7095
12.3	610.657	14.74
12.4	609.131	14.7705
12.5	607.605	14.74
12.6	607.3	14.6179
12.7	606.689	14.801
12.8	606.079	14.6484
12.9	606.384	14.7705
13	607.91	14.801
13.1	607.91	14.6179
13.2	607.605	14.7705
13.3	609.436	14.8315
13.4	611.572	14.6484
13.5	610.046	14.7705
13.6	608.215	14.7095
13.7	608.521	14.7705
13.8	608.826	14.7705
13.9	608.826	14.74
14	609.741	14.6484
14.1	610.657	14.801
14.2	611.267	14.6484
14.3	610.046	14.801
14.4	608.521	14.5874
14.5	606.995	14.7705
14.6	610.657	14.5874
14.7	611.572	14.7705
14.8	610.352	14.7095
14.9	611.572	14.74
15	612.793	14.7705
15.1	610.962	14.7095
15.2	609.741	14.7705
15.3	609.436	14.74
15.4	611.877	14.6484
15.5	611.572	14.7705
15.6	610.657	14.679
15.7	609.131	14.74
15.8	610.046	14.679
15.9	611.572	14.74
16	612.183	14.6179
16.1	610.352	14.7705
16.2	609.741	14.5874
16.3	609.131	14.801
16.4	610.657	14.6179
16.5	609.741	14.7705
16.6	607.3	14.7705
16.7	606.384	14.6179
16.8	606.689	14.7705
16.9	608.215	14.7095
17	608.521	14.6179
17.1	608.521	14.7705
17.2	610.352	14.74
17.3	612.488	14.6179
17.4	611.267	14.7705
17.5	611.267	14.6179
17.6	609.741	14.7705
17.7	609.131	14.6179
17.8	610.962	14.7705
17.9	612.793	14.801
18	612.488	14.6179
18.1	611.267	14.801
18.2	610.657	14.6484
18.3	610.962	14.74
18.4	610.962	14.74
18.5	609.436	14.6179
18.6	609.741	14.7705
18.7	608.826	14.6484
18.8	608.826	14.7705
18.9	607.91	14.6484
19	607.91	14.801
19.1	608.826	14.6484
19.2	610.657	14.8315
19.3	610.046	14.7095
19.4	609.131	14.679
19.5	609.131	14.8621
19.6	610.352	14.6179
19.7	611.267	14.8315
19.8	610.046	14.679
19.9	609.436	14.7705
20	608.215	14.679
20.1	607.605	14.74
20.2	608.826	9.67407
20.3	531.921	9.64355
20.4	244.141	9.79614
20.5	74.1577	9.76563
20.6	66.8335	9.64355
20.7	66.8335	9.79614
20.8	65.918	9.76563
20.9	65.918	9.64355
21	65.6128	9.67407
21.1	65.6128	9.73511
21.2	65.918	9.73511
21.3	66.2231	9.67407
21.4	66.2231	9.73511
21.5	65.918	9.64355
21.6	65.918	9.79614
21.7	65.3076	9.67407
21.8	65.6128	9.61304
21.9	65.0024	9.79614
22	65.6128	9.61304
22.1	65.3076	9.82666
22.2	65.918	9.61304
22.3	65.0024	9.79614
22.4	65.3076	9.70459
22.5	65.3076	9.73511
22.6	65.6128	9.61304
22.7	65.3076	9.76563
22.8	65.6128	9.73511
22.9	65.6128	9.61304
23	65.6128	9.76563
23.1	65.918	9.67407
23.2	65.3076	9.82666
23.3	65.6128	9.67407
23.4	65.6128	9.73511
23.5	65.0024	9.79614
23.6	65.3076	9.61304
23.7	65.6128	9.73511
23.8	65.0024	9.76563
23.9	65.6128	9.67407
24	65.3076	9.73511
24.1	65.3076	9.73511
24.2	65.6128	9.64355
24.3	65.6128	9.76563
24.4	65.3076	9.73511
24.5	65.6128	9.67407
24.6	65.0024	9.76563
24.7	65.0024	9.73511
24.8	65.3076	9.61304
24.9	65.3076	9.76563
25	65.0024	9.76563
25.1	64.6973	9.58252
25.2	65.0024	9.79614
25.3	64.6973	9.82666
25.4	65.0024	9.58252
25.5	65.3076	9.73511
25.6	64.6973	9.79614
25.7	65.0024	9.64355
25.8	65.0024	9.79614
25.9	65.0024	9.73511
26	65.0024	9.64355
26.1	65.0024	9.79614
26.2	64.3921	9.76563
26.3	64.3921	9.76563
26.4	64.6973	9.64355
26.5	64.6973	9.64355
26.6	65.0024	9.82666
26.7	64.6973	9.70459
26.8	65.3076	9.64355
26.9	64.6973	9.73511
27	64.6973	9.64355
27.1	64.3921	9.73511
27.2	64.3921	9.73511
27.3	64.6973	9.67407
27.4	64.0869	9.76563
27.5	64.3921	9.61304
27.6	64.0869	9.82666
27.7	64.3921	9.58252
27.8	64.0869	9.79614
27.9	64.3921	9.67407
28	64.0869	9.79614
28.1	64.3921	9.64355
28.2	63.7817	9.73511
28.3	64.0869	9.64355
28.4	63.7817	9.79614
28.5	64.0869	9.58252
28.6	64.0869	9.79614
28.7	64.3921	9.64355
28.8	64.0869	9.79614
28.9	63.7817	9.73511
29	63.7817	9.67407
29.1	63.7817	9.79614
29.2	63.7817	9.64355
29.3	63.4766	9.79614
29.4	63.7817	9.64355
29.5	63.4766	9.73511
29.6	63.7817	9.67407
29.7	63.4766	9.76563
29.8	63.4766	9.70459
29.9	63.4766	9.79614
30	64.0869	9.61304
30.1	63.4766	9.82666
30.2	63.1714	4.63867
30.3	-5.18799	4.79126
30.4	-281.982	4.79126
30.5	-457.458	4.73022
30.6	-466.919	4.79126
30.7	-466.003	4.66919
30.8	-468.14	4.73022
30.9	-468.75	4.85229
31	-468.75	4.73022
31.1	-469.055	4.69971
31.2	-468.445	4.76074
31.3	-467.224	4.82178
31.4	-467.224	4.69971
31.5	-467.529	4.66919
31.6	-467.529	4.79126
31.7	-468.14	4.73022
31.8	-468.445	4.66919
31.9	-468.14	4.82178
32	-468.14	4.76074
32.1	-469.971	4.63867
32.2	-471.497	4.76074
32.3	-467.834	4.73022
32.4	-464.478	4.73022
32.5	-467.224	4.79126
32.6	-469.666	4.73022
32.7	-470.581	4.66919
32.8	-470.276	4.85229
32.9	-468.75	4.66919
33	-469.36	4.76074
33.1	-470.276	4.79126
33.2	-470.581	4.60815
33.3	-470.886	4.79126
33.4	-470.276	4.82178
33.5	-468.75	4.60815
33.6	-469.055	4.76074
33.7	-469.971	4.82178
33.8	-470.886	4.69971
33.9	-470.581	4.73022
34	-469.971	4.82178
34.1	-469.666	4.76074
34.2	-469.971	4.63867
34.3	-470.886	4.79126
34.4	-470.276	4.82178
34.5	-467.834	4.63867
34.6	-466.919	4.69971
34.7	-469.055	4.82178
34.8	-470.581	4.82178
34.9	-469.666	4.82178
35	-468.75	4.73022
35.1	-469.055	4.66919
35.2	-470.276	4.69971
35.3	-471.191	4.73022
35.4	-472.412	4.85229
35.5	-470.886	4.79126
35.6	-468.14	4.79126
35.7	-469.36	4.82178
35.8	-469.666	4.73022
35.9	-470.886	4.66919
36	-470.886	4.66919
36.1	-468.14	4.79126
36.2	-467.834	4.85229
36.3	-467.834	4.79126
36.4	-466.614	4.79126
36.5	-468.14	4.66919
36.6	-469.971	4.66919
36.7	-470.276	4.88281
36.8	-469.971	4.66919
36.9	-470.886	4.76074
37	-471.191	4.82178
37.1	-469.055	4.76074
37.2	-467.834	4.79126
37.3	-468.75	4.76074
37.4	-467.834	4.76074
37.5	-468.75	4.73022
37.6	-471.497	4.79126
37.7	-471.191	4.85229
37.8	-469.971	4.63867
37.9	-469.055	4.66919
38	-469.36	4.82178
38.1	-470.581	4.79126
38.2	-471.497	4.76074
38.3	-471.802	4.63867
38.4	-472.107	4.82178
38.5	-471.497	4.82178
38.6	-471.802	4.73022
38.7	-472.107	4.73022
38.8	-471.497	4.79126
38.9	-471.191	4.73022
39	-472.107	4.76074
39.1	-474.548	4.82178
39.2	-473.022	4.73022
39.3	-472.107	4.76074
39.4	-472.717	4.79126
39.5	-472.107	4.66919
39.6	-471.191	4.69971
39.7	-471.497	4.85229
39.8	-473.022	4.76074
39.9	-472.412	4.66919
40	-470.276	4.85229
40.1	-469.666	4.82178
40.2	-468.445	-0.305176
40.3	-497.742	-0.305176
40.4	-728.455	-0.213623
40.5	-961.304	-0.183105
40.6	-997.62	-0.244141
40.7	-995.483	-0.305176
40.8	-995.789	-0.183105
40.9	-994.263	-0.274658
41	-995.178	-0.305176
41.1	-992.126	-0.244141
41.2	-989.685	-0.335693
41.3	-987.854	-0.213623
41.4	-985.107	-0.213623
41.5	-984.192	-0.335693
41.6	-983.276	-0.244141
41.7	-987.244	-0.12207
41.8	-989.99	-0.213623
41.9	-989.075	-0.366211
42	-987.244	-0.274658
42.1	-986.328	-0.213623
42.2	-988.464	-0.183105
42.3	-989.99	-0.183105
42.4	-989.38	-0.213623
42.5	-988.159	-0.152588
42.6	-988.77	-0.213623
42.7	-988.159	-0.305176
42.8	-987.549	-0.335693
42.9	-984.802	-0.244141
43	-983.276	-0.152588
43.1	-983.276	-0.183105
43.2	-984.192	-0.244141
43.3	-987.549	-0.335693
43.4	-988.77	-0.244141
43.5	-988.464	-0.152588
43.6	-989.38	-0.213623
43.7	-989.685	-0.244141
43.8	-988.464	-0.213623
43.9	-989.38	-0.305176
44	-991.821	-0.305176
44.1	-991.516	-0.366211
44.2	-992.126	-0.335693
44.3	-989.99	-0.274658
44.4	-987.244	-0.244141
44.5	-987.854	-0.183105
44.6	-986.023	-0.213623
44.7	-988.77	-0.274658
44.8	-992.737	-0.274658
44.9	-989.075	-0.183105
45	-990.906	-0.183105
45.1	-993.652	-0.366211
45.2	-986.328	-0.244141
45.3	-980.53	-0.213623
45.4	-983.276	-0.366211
45.5	-986.328	-0.274658
45.6	-985.107	-0.244141
45.7	-984.192	-0.152588
45.8	-981.445	-0.183105
45.9	-980.225	-0.244141
46	-982.361	-0.305176
46.1	-984.802	-0.366211
46.2	-985.413	-0.305176
46.3	-985.413	-0.213623
46.4	-983.582	-0.152588
46.5	-984.192	-0.183105
46.6	-986.023	-0.213623
46.7	-987.244	-0.152588
46.8	-986.938	-0.274658
46.9	-988.159	-0.305176
47	-984.802	-0.335693
47.1	-980.225	-0.305176
47.2	-982.666	-0.213623
47.3	-986.328	-0.244141
47.4	-988.464	-0.183105
47.5	-988.464	-0.183105
47.6	-988.77	-0.183105
47.7	-984.802	-0.244141
47.8	-980.225	-0.366211
47.9	-984.497	-0.305176
48	-986.938	-0.244141
48.1	-983.887	-0.152588
48.2	-980.225	-0.183105
48.3	-982.971	-0.274658
48.4	-990.906	-0.305176
48.5	-992.126	-0.274658
48.6	-990.906	-0.305176
48.7	-988.77	-0.335693
48.8	-984.802	-0.274658
48.9	-985.413	-0.213623
49	-988.159	-0.213623
49.1	-989.685	-0.183105
49.2	-988.159	-0.366211
49.3	-985.107	-0.305176
49.4	-985.718	-0.213623
49.5	-986.633	-0.152588
49.6	-986.633	-0.213623
49.7	-984.802	-0.305176
49.8	-984.802	-0.305176
49.9	-984.802	-0.274658
50	-987.854	-0.183105
50.1	-989.99	-0.305176
50.2	-992.126	-5.31006
50.3	-1019.9	-5.21851
50.4	-1247.25	-5.15747
50.5	-1461.49	-5.12695
50.6	-1490.78	-5.31006
50.7	-1488.65	-5.27954
50.8	-1487.43	-5.15747
50.9	-1488.34	-5.15747
51	-1484.68	-5.12695
51.1	-1484.68	-5.27954
51.2	-1485.29	-5.24902
51.3	-1479.19	-5.24902
51.4	-1487.12	-5.09644
51.5	-1489.56	-5.15747
51.6	-1484.99	-5.18799
51.7	-1483.15	-5.31006
51.8	-1482.24	-5.21851
51.9	-1484.99	-5.15747
52	-1487.43	-5.18799
52.1	-1484.68	-5.27954
52.2	-1478.88	-5.27954
52.3	-1478.58	-5.27954
52.4	-1479.19	-5.12695
52.5	-1480.41	-5.18799
52.6	-1484.99	-5.18799
52.7	-1485.9	-5.18799
52.8	-1477.66	-5.21851
52.9	-1471.25	-5.24902
53	-1471.86	-5.27954
53.1	-1470.34	-5.21851
53.2	-1464.84	-5.18799
53.3	-1462.71	-5.27954
53.4	-1465.45	-5.27954
53.5	-1468.51	-5.21851
53.6	-1468.81	-5.12695
53.7	-1465.76	-5.24902
53.8	-1464.54	-5.31006
53.9	-1467.29	-5.18799
54	-1472.78	-5.15747
54.1	-1477.36	-5.31006
54.2	-1474.61	-5.21851
54.3	-1476.44	-5.21851
54.4	-1478.58	-5.34058
54.5	-1473.08	-5.12695
54.6	-1474.3	-5.18799
54.7	-1479.19	-5.34058
54.8	-1475.52	-5.21851
54.9	-1466.06	-5.21851
55	-1464.23	-5.21851
55.1	-1472.17	-5.31006
55.2	-1480.1	-5.15747
55.3	-1481.32	-5.12695
55.4	-1474	-5.27954
55.5	-1475.83	-5.27954
55.6	-1485.29	-5.21851
55.7	-1491.39	-5.12695
55.8	-1491.09	-5.21851
55.9	-1492.31	-5.31006
56	-1493.53	-5.18799
56.1	-1492.92	-5.18799
56.2	-1487.43	-5.21851
56.3	-1477.36	-5.27954
56.4	-1474.91	-5.15747
56.5	-1477.05	-5.27954
56.6	-1475.52	-5.31006
56.7	-1490.48	-5.15747
56.8	-1499.02	-5.21851
56.9	-1493.23	-5.24902
57	-1489.87	-5.21851
57.1	-1490.48	-5.34058
57.2	-1483.76	-5.24902
57.3	-1481.02	-5.18799
57.4	-1480.41	-5.12695
57.5	-1479.8	-5.12695
57.6	-1484.38	-5.18799
57.7	-1485.6	-5.34058
57.8	-1480.71	-5.31006
57.9	-1478.58	-5.15747
58	-1485.6	-5.12695
58.1	-1487.12	-5.24902
58.2	-1479.8	-5.27954
58.3	-1476.44	-5.15747
58.4	-1475.52	-5.15747
58.5	-1480.41	-5.27954
58.6	-1484.68	-5.27954
58.7	-1489.87	-5.12695
58.8	-1489.26	-5.27954
58.9	-1492.31	-5.27954
59	-1494.14	-5.21851
59.1	-1487.73	-5.18799
59.2	-1484.68	-5.12695
59.3	-1489.26	-5.21851
59.4	-1492.61	-5.27954
59.5	-1502.69	-5.27954
59.6	-1508.79	-5.24902
59.7	-1500.85	-5.12695
59.8	-1494.45	-5.24902
59.9	-1491.09	-5.34058
60	-1491.09	-5.31006
60.1	-1497.8	-5.34058
60.2	-1499.33	-10.2539
60.3	-1578.37	-10.1318
60.4	-1835.02	-10.1013
60.5	-1972.96	-10.1013
60.6	-1980.59	-10.2539
60.7	-1978.15	-10.2539
60.8	-1979.06	-10.1318
60.9	-1979.37	-10.1318
61	-1972.66	-10.1318
61.1	-1963.2	-10.3149
61.2	-1963.5	-10.2234
61.3	-1973.88	-10.1318
61.4	-1977.54	-10.2539
61.5	-1968.08	-10.2234
61.6	-1965.64	-10.1624
61.7	-1976.32	-10.1624
61.8	-1979.68	-10.2539
61.9	-1969.6	-10.3455
62	-1961.06	-10.1624
62.1	-1966.86	-10.1624
62.2	-1974.18	-10.1013
62.3	-1977.23	-10.1318
62.4	-1973.57	-10.2234
62.5	-1971.44	-10.2539
62.6	-1967.77	-10.3455
62.7	-1962.28	-10.2234
62.8	-1964.11	-10.1318
62.9	-1974.79	-10.1624
63	-1972.66	-10.1624
63.1	-1968.99	-10.1624
63.2	-1960.75	-10.2844
63.3	-1947.94	-10.2844
63.4	-1958.92	-10.1624
63.5	-1972.05	-10.1318
63.6	-1960.14	-10.3149
63.7	-1956.18	-10.2234
63.8	-1961.36	-10.1013
63.9	-1962.28	-10.1929
64	-1962.89	-10.2539
64.1	-1959.23	-10.1318
64.2	-1961.36	-10.2844
64.3	-1961.67	-10.1013
64.4	-1961.06	-10.1929
64.5	-1959.23	-10.2539
64.6	-1948.55	-10.1624
64.7	-1948.55	-10.2234
64.8	-1949.16	-10.1318
64.9	-1954.65	-10.2844
65	-1962.59	-10.1624
65.1	-1973.88	-10.1929
65.2	-1977.54	-10.1929
65.3	-1969.6	-10.1624
65.4	-1972.35	-10.1624
65.5	-1979.68	-10.1624
65.6	-1987.92	-10.1318
65.7	-1986.08	-10.2539
65.8	-1975.71	-10.1624
65.9	-1967.47	-10.2844
66	-1960.75	-10.1318
66.1	-1957.09	-10.3149
66.2	-1956.18	-10.1318
66.3	-1959.53	-10.2539
66.4	-1964.11	-10.1318
66.5	-1971.74	-10.2539
66.6	-1975.71	-10.1318
66.7	-1966.55	-10.2234
66.8	-1960.45	-10.1624
66.9	-1952.21	-10.1929
67	-1954.04	-10.2234
67.1	-1968.69	-10.1624
67.2	-1971.74	-10.1929
67.3	-1963.81	-10.3149
67.4	-1960.45	-10.1013
67.5	-1954.96	-10.2844
67.6	-1956.79	-10.1624
67.7	-1962.89	-10.1929
67.8	-1966.55	-10.3149
67.9	-1969.6	-10.1318
68	-1966.25	-10.2539
68.1	-1964.42	-10.1929
68.2	-1956.48	-10.1318
68.3	-1954.04	-10.1318
68.4	-1957.09	-10.2539
68.5	-1952.21	-10.1318
68.6	-1947.94	-10.2234
68.7	-1943.36	-10.1318
68.8	-1944.58	-10.3149
68.9	-1955.57	-10.1318
69	-1957.4	-10.2539
69.1	-1948.85	-10.2539
69.2	-1944.89	-10.1624
69.3	-1953.43	-10.1624
69.4	-1955.57	-10.1929
69.5	-1955.26	-10.2234
69.6	-1958.31	-10.1624
69.7	-1953.74	-10.2844
69.8	-1947.33	-10.1624
69.9	-1950.38	-10.2234
70	-1944.27	-10.3149
70.1	-1932.68	-15.0757
70.2	-1956.18	-15.2283
70.3	-2157.59	-15.2588
70.4	-2383.42	-15.1062
70.5	-2421.88	-15.2283
70.6	-2411.5	-15.3198
70.7	-2388	-15.1672
70.8	-2382.51	-15.1367
70.9	-2392.58	-15.1978
71	-2396.85	-15.2588
71.1	-2394.1	-15.1672
71.2	-2384.64	-15.2588
71.3	-2398.99	-15.1672
71.4	-2398.99	-15.1978
71.5	-2391.05	-15.1978
71.6	-2394.1	-15.1062
71.7	-2392.88	-15.3198
71.8	-2401.12	-15.1062
71.9	-2391.36	-15.2588
72	-2377.93	-15.1672
72.1	-2379.46	-15.2893
72.2	-2385.56	-15.1367
72.3	-2394.1	-15.1367
72.4	-2395.32	-15.2893
72.5	-2403.56	-15.1062
72.6	-2409.36	-15.2283
72.7	-2404.17	-15.1978
72.8	-2403.26	-15.1062
72.9	-2410.58	-15.1367
73	-2417.6	-15.2283
73.1	-2417.6	-15.2893
73.2	-2411.19	-15.1978
73.3	-2409.67	-15.1367
73.4	-2414.25	-15.2588
73.5	-2414.86	-15.1062
73.6	-2421.26	-15.3198
73.7	-2431.03	-15.1367
73.8	-2435.91	-15.1672
73.9	-2431.03	-15.3198
74	-2429.5	-15.1978
74.1	-2431.03	-15.1062
74.2	-2420.65	-15.1367
74.3	-2418.52	-15.1978
74.4	-2428.28	-15.2893
74.5	-2430.73	-15.3198
74.6	-2435.3	-15.1978
74.7	-2442.63	-15.1978
74.8	-2434.39	-15.1672
74.9	-2415.77	-15.1367
75	-2420.04	-15.1367
75.1	-2440.19	-15.1672
75.2	-2445.98	-15.1978
75.3	-2441.71	-15.2588
75.4	-2424.62	-15.2893
75.5	-2414.86	-15.1672
75.6	-2420.96	-15.1367
75.7	-2420.96	-15.1672
75.8	-2415.16	-15.2588
75.9	-2418.21	-15.2893
76	-2439.27	-15.1367
76.1	-2442.32	-15.1367
76.2	-2439.27	-15.2588
76.3	-2449.65	-15.1367
76.4	-2442.63	-15.0757
76.5	-2428.28	-15.3198
76.6	-2414.25	-15.1062
76.7	-2411.8	-15.1062
76.8	-2431.64	-15.2893
76.9	-2454.53	-15.1062
77	-2435.91	-15.1367
77.1	-2416.08	-15.3198
77.2	-2423.1	-15.1978
77.3	-2422.49	-15.1062
77.4	-2414.25	-15.1672
77.5	-2412.11	-15.2893
77.6	-2427.37	-15.1672
77.7	-2446.59	-15.1062
77.8	-2449.95	-15.2893
77.9	-2442.32	-15.2588
78	-2428.89	-15.1367
78.1	-2418.21	-15.1672
78.2	-2412.11	-15.1062
78.3	-2415.47	-15.2283
78.4	-2422.18	-15.3198
78.5	-2408.45	-15.2588
78.6	-2395.94	-15.1672
78.7	-2395.02	-15.1672
78.8	-2410.89	-15.1062
78.9	-2420.35	-15.1672
79	-2425.84	-15.3503
79.1	-2421.57	-15.1672
79.2	-2418.82	-15.1062
79.3	-2432.56	-15.1367
79.4	-2426.76	-15.1062
79.5	-2411.8	-15.1367
79.6	-2405.4	-15.2893
79.7	-2406.62	-15.2893
79.8	-2424.62	-15.1367
79.9	-2437.44	-15.1672
80	-2438.96	-15.1062
80.1	-2435.61	-15.0757
80.2	-2432.56	-20.2332
80.3	-2453.31	-20.2026
80.4	-2628.78	-20.2637
80.5	-2833.86	-20.2332
80.6	-2844.54	-20.2026
80.7	-2822.27	-20.2637
80.8	-2853.09	-20.2942
80.9	-2882.08	-20.2942
81	-2882.39	-20.2026
81.1	-2869.26	-20.1416
81.2	-2850.04	-20.1721
81.3	-2839.36	-20.2026
81.4	-2846.07	-20.3247
81.5	-2863.16	-20.1721
81.6	-2854.61	-20.1111
81.7	-2831.73	-20.2637
81.8	-2822.57	-20.2637
81.9	-2831.42	-20.1111
82	-2837.22	-20.1416
82.1	-2840.27	-20.1721
82.2	-2829.59	-20.1721
82.3	-2803.04	-20.2026
82.4	-2791.75	-20.3552
82.5	-2808.84	-20.2637
82.6	-2841.49	-20.2026
82.7	-2854.61	-20.1721
82.8	-2832.34	-20.1111
82.9	-2817.69	-20.1111
83	-2821.66	-20.1721
83.1	-2831.73	-20.2637
83.2	-2842.41	-20.2637
83.3	-2837.52	-20.2026
83.4	-2832.64	-20.1111
83.5	-2839.97	-20.1111
83.6	-2857.67	-20.2026
83.7	-2850.34	-20.2637
83.8	-2824.4	-20.2637
83.9	-2836.61	-20.1721
84	-2845.76	-20.1111
84.1	-2836.61	-20.2332
84.2	-2839.97	-20.3247
84.3	-2843.93	-20.1111
84.4	-2847.9	-20.1111
84.5	-2845.46	-20.1721
84.6	-2841.49	-20.2942
84.7	-2835.69	-20.2942
84.8	-2831.73	-20.2332
84.9	-2828.06	-20.1721
85	-2829.28	-20.0806
85.1	-2821.04	-20.1416
85.2	-2808.84	-20.3247
85.3	-2801.51	-20.2026
85.4	-2817.38	-20.1416
85.5	-2815.86	-20.1721
85.6	-2805.48	-20.1111
85.7	-2793.58	-20.1111
85.8	-2792.97	-20.1721
85.9	-2815.55	-20.2637
86	-2826.54	-20.2942
86.1	-2811.28	-20.2026
86.2	-2803.65	-20.1416
86.3	-2820.43	-20.1111
86.4	-2820.43	-20.2942
