ATF	1.0
7	3     
"AcquisitionMode=Gap Free"
"Comment="
"YTop=10000,1000"
"YBottom=-10000,-1000"
"SweepStartTimesMS=0.000"
"SignalsExported=Im_Scaled,10_mv"
"Signals="	"Im_Scaled"	"10_mv"
"Time (s)"	"Trace #1 (pA)"	"Trace #1 (mV)"
0	1456.3	19.7144
0.1	1456.91	19.7144
0.2	1458.13	19.6533
0.3	1460.27	19.7754
0.4	1461.18	19.7144
0.5	1462.71	19.8364
0.6	1464.54	19.6533
0.7	1464.84	19.8059
0.8	1464.23	19.7449
0.9	1461.49	19.6228
1	1456.91	19.7449
1.1	1452.64	19.7144
1.2	1452.64	19.6838
1.3	1455.69	19.8364
1.4	1457.21	19.6838
1.5	1453.55	19.6838
1.6	1452.64	19.7754
1.7	1455.08	19.7754
1.8	1456.3	19.6533
1.9	1455.99	19.7754
2	1457.21	19.7754
2.1	1455.38	19.7449
2.2	1455.69	19.7754
2.3	1459.05	19.5923
2.4	1455.38	19.7754
2.5	1452.33	19.6533
2.6	1455.99	19.7754
2.7	1460.57	19.7144
2.8	1461.49	19.6228
2.9	1462.1	19.7449
3	1462.4	19.6228
3.1	1457.21	19.7754
3.2	1458.74	19.6228
3.3	1464.54	19.8059
3.4	1465.45	19.7449
3.5	1466.67	19.7144
3.6	1469.12	19.7754
3.7	1471.25	19.6228
3.8	1474	19.8059
3.9	1475.83	19.6228
4	1473.08	19.8364
4.1	1463.62	19.6228
4.2	1459.96	19.8059
4.3	1462.4	19.6228
4.4	1466.06	19.7754
4.5	1466.06	19.5923
4.6	1459.96	19.8059
4.7	1456.91	19.6533
4.8	1455.69	19.8059
4.9	1456.91	19.6533
5	1459.66	19.7449
5.1	1459.66	19.7754
5.2	1466.67	19.6228
5.3	1468.51	19.7449
5.4	1467.29	19.7449
5.5	1464.23	19.7144
5.6	1466.37	19.7754
5.7	1466.98	19.6228
5.8	1465.15	19.8059
5.9	1466.37	19.6533
6	1464.84	19.7144
6.1	1462.1	19.6838
6.2	1463.32	19.6533
6.3	1466.06	19.7754
6.4	1472.78	19.8059
6.5	1479.19	19.7144
6.6	1477.66	19.6533
6.7	1472.47	19.6838
6.8	1467.9	19.7754
6.9	1465.76	19.7449
7	1467.9	19.6838
7.1	1469.42	19.7144
7.2	1470.95	19.8059
7.3	1466.67	19.6533
7.4	1465.15	19.8364
7.5	1469.73	19.6228
7.6	1463.62	19.7449
7.7	1454.77	19.6228
7.8	1457.21	19.7449
7.9	1466.06	19.7144
8	1464.84	19.6838
8.1	1459.96	19.7754
8.2	1460.57	19.6533
8.3	1460.57	19.7449
8.4	1458.44	19.7754
8.5	1459.66	19.5923
8.6	1464.23	19.7754
8.7	1473.08	19.7754
8.8	1471.56	19.6228
8.9	1465.15	19.8059
9	1458.13	19.7144
9.1	1460.57	19.6838
9.2	1467.9	19.7449
9.3	1471.56	19.5923
9.4	1475.83	19.8364
9.5	1477.36	19.6533
9.6	1470.95	19.8059
9.7	1466.06	19.6838
9.8	1466.98	19.8059
9.9	1470.64	19.6228
10	1476.44	19.7754
10.1	1476.75	14.6179
10.2	1453.55	14.7705
10.3	1241.15	14.6179
10.4	966.797	14.801
10.5	910.339	14.6484
10.6	913.696	14.7095
10.7	910.95	14.801
10.8	911.255	14.7095
10.9	915.833	14.6179
11	923.462	14.7095
11.1	926.819	14.801
11.2	928.345	14.6179
11.3	924.683	14.7705
11.4	921.936	14.801
11.5	919.495	14.6179
11.6	920.41	14.74
11.7	921.936	14.7705
11.8	922.241	14.6179
11.9	923.767	14.679
12	925.293	14.7705
12.1	924.072	14.7705
12.2	924.683	14.6484
12.3	926.208	14.7095
12.4	927.429	14.7705
12.5	927.429	14.801
12.6	927.124	14.7095
12.7	928.65	14.6484
12.8	929.26	14.679
12.9	926.514	14.74
13	927.124	14.8315
13.1	926.514	14.801
13.2	923.462	14.7705
13.3	922.546	14.7705
13.4	922.852	14.74
13.5	926.514	14.74
13.6	929.565	14.6179
13.7	927.734	14.7095
13.8	925.598	14.8315
13.9	924.072	14.801
14	921.326	14.7095
14.1	922.852	14.6179
14.2	924.377	14.679
14.3	923.767	14.7705
14.4	922.241	14.7705
14.5	924.683	14.6179
14.6	927.429	14.7705
14.7	930.176	14.7705
14.8	928.04	14.6484
14.9	924.683	14.7705
15	926.514	14.679
15.1	928.345	14.5874
15.2	925.598	14.679
15.3	923.767	14.801
15.4	922.852	14.8315
15.5	923.157	14.6484
15.6	925.903	14.6179
15.7	926.208	14.74
15.8	924.072	14.8315
15.9	923.462	14.7705
16	924.683	14.8315
16.1	925.903	14.8315
16.2	924.683	14.74
16.3	922.546	14.74
16.4	922.241	14.74
16.5	922.546	14.74
16.6	920.715	14.6484
16.7	920.105	14.6484
16.8	921.021	14.6179
16.9	921.326	14.5874
17	920.715	14.7095
17.1	920.715	14.801
17.2	920.41	14.679
17.3	918.579	14.7095
17.4	919.495	14.801
17.5	924.072	14.6179
17.6	926.514	14.801
17.7	925.903	14.679
17.8	926.819	14.6179
17.9	924.988	14.801
18	924.683	14.7705
18.1	924.072	14.6484
18.2	924.683	14.801
18.3	924.683	14.74
18.4	924.377	14.5874
18.5	927.734	14.74
18.6	927.429	14.7705
18.7	924.988	14.74
18.8	922.241	14.679
18.9	921.326	14.5874
19	922.546	14.5874
19.1	924.072	14.6179
19.2	923.157	14.679
19.3	920.105	14.74
19.4	919.189	14.7705
19.5	920.715	14.74
19.6	920.41	14.6484
19.7	919.8	14.6179
19.8	916.748	14.6179
19.9	917.969	14.6484
20	922.852	14.6484
20.1	924.683	14.74
20.2	924.072	14.801
20.3	918.274	9.79614
20.4	787.659	9.76563
20.5	478.21	9.73511
20.6	350.037	9.73511
20.7	350.647	9.61304
20.8	350.647	9.67407
20.9	350.342	9.82666
21	350.647	9.76563
21.1	350.952	9.73511
21.2	350.342	9.64355
21.3	349.121	9.64355
21.4	349.731	9.64355
21.5	350.037	9.67407
21.6	350.647	9.70459
21.7	350.647	9.76563
21.8	349.731	9.76563
21.9	350.647	9.79614
22	350.647	9.79614
22.1	350.647	9.76563
22.2	350.342	9.79614
22.3	350.342	9.82666
22.4	348.816	9.73511
22.5	347.595	9.67407
22.6	348.816	9.64355
22.7	349.426	9.67407
22.8	350.037	9.64355
22.9	350.342	9.70459
23	350.037	9.76563
23.1	349.121	9.73511
23.2	348.816	9.73511
23.3	349.121	9.76563
23.4	349.121	9.82666
23.5	349.121	9.82666
23.6	349.426	9.79614
23.7	349.121	9.79614
23.8	349.426	9.79614
23.9	349.731	9.70459
24	349.121	9.73511
24.1	348.816	9.67407
24.2	348.816	9.61304
24.3	349.121	9.552
24.4	348.816	9.64355
24.5	348.816	9.67407
24.6	348.511	9.67407
24.7	347.29	9.73511
24.8	347.9	9.73511
24.9	348.206	9.73511
25	349.121	9.73511
25.1	349.731	9.64355
25.2	349.731	9.61304
25.3	349.731	9.76563
25.4	349.426	9.79614
25.5	348.816	9.73511
25.6	349.121	9.73511
25.7	349.731	9.64355
25.8	350.037	9.82666
25.9	350.037	9.79614
26	350.647	9.61304
26.1	350.342	9.67407
26.2	350.952	9.79614
26.3	352.478	9.73511
26.4	351.257	9.61304
26.5	350.342	9.73511
26.6	350.342	9.82666
26.7	349.731	9.70459
26.8	348.511	9.64355
26.9	347.9	9.70459
27	349.121	9.79614
27.1	350.342	9.73511
27.2	348.511	9.61304
27.3	347.29	9.76563
27.4	348.511	9.76563
27.5	350.037	9.64355
27.6	350.647	9.79614
27.7	350.952	9.82666
27.8	351.868	9.67407
27.9	351.257	9.61304
28	350.647	9.79614
28.1	351.257	9.79614
28.2	350.037	9.79614
28.3	348.816	9.70459
28.4	347.595	9.76563
28.5	347.9	9.70459
28.6	347.9	9.79614
28.7	348.511	9.76563
28.8	348.816	9.67407
28.9	349.121	9.76563
29	348.816	9.61304
29.1	349.426	9.73511
29.2	349.731	9.82666
29.3	350.647	9.61304
29.4	350.342	9.79614
29.5	350.342	9.76563
29.6	351.563	9.58252
29.7	350.647	9.76563
29.8	350.037	9.76563
29.9	349.731	9.64355
30	349.731	9.79614
30.1	349.731	9.82666
30.2	350.647	9.70459
30.3	350.342	4.63867
30.4	345.459	4.73022
30.5	198.059	4.82178
30.6	-108.032	4.79126
30.7	-217.896	4.66919
30.8	-215.149	4.76074
30.9	-216.37	4.82178
31	-216.675	4.76074
31.1	-216.37	4.66919
31.2	-216.37	4.76074
31.3	-216.37	4.85229
31.4	-216.675	4.66919
31.5	-216.98	4.76074
31.6	-216.675	4.73022
31.7	-216.064	4.79126
31.8	-216.37	4.76074
31.9	-216.37	4.69971
32	-216.675	4.82178
32.1	-216.98	4.60815
32.2	-218.201	4.79126
32.3	-217.896	4.66919
32.4	-218.506	4.82178
32.5	-217.285	4.79126
32.6	-216.98	4.66919
32.7	-217.59	4.76074
32.8	-218.201	4.79126
32.9	-219.116	4.73022
33	-217.896	4.66919
33.1	-218.201	4.82178
33.2	-217.896	4.82178
33.3	-217.285	4.69971
33.4	-217.285	4.79126
33.5	-217.896	4.69971
33.6	-218.506	4.73022
33.7	-218.811	4.82178
33.8	-217.896	4.76074
33.9	-217.896	4.73022
34	-218.811	4.79126
34.1	-218.506	4.63867
34.2	-217.896	4.76074
34.3	-217.59	4.82178
34.4	-218.201	4.79126
34.5	-217.285	4.69971
34.6	-217.896	4.76074
34.7	-217.896	4.73022
34.8	-217.896	4.69971
34.9	-218.506	4.79126
35	-219.116	4.69971
35.1	-220.032	4.76074
35.2	-219.421	4.82178
35.3	-219.116	4.66919
35.4	-218.811	4.76074
35.5	-218.811	4.79126
35.6	-218.811	4.82178
35.7	-218.506	4.79126
35.8	-218.506	4.79126
35.9	-217.285	4.73022
36	-217.285	4.66919
36.1	-218.201	4.60815
36.2	-218.811	4.66919
36.3	-218.506	4.82178
36.4	-218.506	4.82178
36.5	-218.811	4.66919
36.6	-219.421	4.69971
36.7	-219.727	4.82178
36.8	-219.116	4.76074
36.9	-217.285	4.82178
37	-217.285	4.76074
37.1	-216.98	4.73022
37.2	-217.59	4.73022
37.3	-218.811	4.76074
37.4	-218.811	4.73022
37.5	-218.201	4.60815
37.6	-217.896	4.69971
37.7	-218.201	4.82178
37.8	-218.811	4.82178
37.9	-219.116	4.82178
38	-218.811	4.66919
38.1	-218.811	4.85229
38.2	-218.811	4.76074
38.3	-219.116	4.60815
38.4	-219.421	4.79126
38.5	-220.032	4.76074
38.6	-220.642	4.66919
38.7	-220.337	4.85229
38.8	-220.032	4.66919
38.9	-220.642	4.79126
39	-220.032	4.69971
39.1	-219.421	4.82178
39.2	-219.421	4.63867
39.3	-219.727	4.76074
39.4	-219.116	4.79126
39.5	-218.811	4.66919
39.6	-219.727	4.73022
39.7	-220.337	4.85229
39.8	-219.727	4.76074
39.9	-220.337	4.60815
40	-220.032	4.76074
40.1	-219.116	4.76074
40.2	-219.421	-0.274658
40.3	-300.293	-0.183105
40.4	-600.586	-0.244141
40.5	-774.841	-0.274658
40.6	-779.114	-0.183105
40.7	-778.198	-0.366211
40.8	-779.419	-0.274658
40.9	-778.809	-0.213623
41	-779.114	-0.335693
41.1	-777.283	-0.183105
41.2	-774.841	-0.244141
41.3	-773.01	-0.274658
41.4	-774.231	-0.183105
41.5	-775.452	-0.335693
41.6	-776.672	-0.274658
41.7	-776.978	-0.244141
41.8	-776.367	-0.244141
41.9	-775.452	-0.335693
42	-774.231	-0.183105
42.1	-776.367	-0.213623
42.2	-776.978	-0.335693
42.3	-777.893	-0.183105
42.4	-775.757	-0.152588
42.5	-775.146	-0.366211
42.6	-776.978	-0.244141
42.7	-779.724	-0.213623
42.8	-780.334	-0.366211
42.9	-778.503	-0.183105
43	-775.757	-0.213623
43.1	-775.146	-0.335693
43.2	-777.893	-0.183105
43.3	-776.062	-0.183105
43.4	-773.621	-0.213623
43.5	-771.179	-0.305176
43.6	-770.874	-0.335693
43.7	-771.179	-0.213623
43.8	-772.095	-0.183105
43.9	-771.484	-0.305176
44	-772.4	-0.305176
44.1	-775.757	-0.274658
44.2	-776.672	-0.183105
44.3	-775.146	-0.152588
44.4	-775.757	-0.152588
44.5	-778.809	-0.305176
44.6	-780.334	-0.305176
44.7	-779.419	-0.244141
44.8	-776.672	-0.396729
44.9	-773.621	-0.244141
45	-770.264	-0.152588
45.1	-768.738	-0.152588
45.2	-770.874	-0.213623
45.3	-773.926	-0.244141
45.4	-775.757	-0.305176
45.5	-777.893	-0.305176
45.6	-779.114	-0.213623
45.7	-778.503	-0.244141
45.8	-775.146	-0.366211
45.9	-774.536	-0.274658
46	-774.536	-0.213623
46.1	-773.926	-0.213623
46.2	-775.146	-0.274658
46.3	-776.367	-0.305176
46.4	-776.062	-0.183105
46.5	-777.283	-0.183105
46.6	-778.809	-0.152588
46.7	-778.503	-0.305176
46.8	-777.893	-0.366211
46.9	-776.367	-0.274658
47	-777.283	-0.244141
47.1	-780.029	-0.183105
47.2	-780.029	-0.244141
47.3	-776.978	-0.366211
47.4	-774.231	-0.305176
47.5	-769.958	-0.152588
47.6	-771.79	-0.12207
47.7	-775.146	-0.183105
47.8	-773.926	-0.213623
47.9	-772.4	-0.396729
48	-774.536	-0.366211
48.1	-778.503	-0.244141
48.2	-779.114	-0.305176
48.3	-777.588	-0.213623
48.4	-778.809	-0.152588
48.5	-779.724	-0.183105
48.6	-779.724	-0.213623
48.7	-779.419	-0.274658
48.8	-774.841	-0.305176
48.9	-774.841	-0.366211
49	-776.672	-0.335693
49.1	-774.841	-0.213623
49.2	-773.621	-0.183105
49.3	-776.367	-0.183105
49.4	-778.503	-0.152588
49.5	-779.114	-0.213623
49.6	-778.809	-0.183105
49.7	-778.809	-0.152588
49.8	-776.672	-0.152588
49.9	-771.79	-0.274658
50	-772.4	-0.305176
50.1	-775.757	-0.396729
50.2	-775.146	-0.335693
50.3	-772.095	-5.27954
50.4	-789.185	-5.18799
50.5	-989.38	-5.12695
50.6	-1253.66	-5.18799
50.7	-1310.73	-5.18799
50.8	-1300.96	-5.21851
50.9	-1303.41	-5.18799
51	-1307.07	-5.18799
51.1	-1309.81	-5.15747
51.2	-1313.48	-5.15747
51.3	-1310.42	-5.18799
51.4	-1307.98	-5.18799
51.5	-1313.78	-5.31006
51.6	-1316.53	-5.27954
51.7	-1310.42	-5.15747
51.8	-1308.29	-5.15747
51.9	-1313.48	-5.27954
52	-1318.05	-5.37109
52.1	-1317.44	-5.27954
52.2	-1311.65	-5.18799
52.3	-1307.98	-5.12695
52.4	-1307.07	-5.18799
52.5	-1310.42	-5.27954
52.6	-1309.51	-5.27954
52.7	-1308.9	-5.37109
52.8	-1310.12	-5.34058
52.9	-1311.65	-5.31006
53	-1313.48	-5.27954
53.1	-1316.53	-5.18799
53.2	-1319.58	-5.18799
53.3	-1318.66	-5.09644
53.4	-1319.27	-5.15747
53.5	-1321.72	-5.24902
53.6	-1318.66	-5.27954
53.7	-1315.31	-5.34058
53.8	-1310.73	-5.31006
53.9	-1303.41	-5.31006
54	-1304.32	-5.27954
54.1	-1308.29	-5.27954
54.2	-1308.59	-5.24902
54.3	-1310.12	-5.21851
54.4	-1308.59	-5.27954
54.5	-1304.32	-5.31006
54.6	-1301.57	-5.27954
54.7	-1304.32	-5.15747
54.8	-1305.54	-5.12695
54.9	-1310.42	-5.18799
55	-1310.73	-5.24902
55.1	-1307.68	-5.34058
55.2	-1304.32	-5.27954
55.3	-1303.1	-5.24902
55.4	-1303.41	-5.18799
55.5	-1303.71	-5.12695
55.6	-1301.88	-5.21851
55.7	-1304.02	-5.24902
55.8	-1303.1	-5.27954
55.9	-1296.39	-5.27954
56	-1295.17	-5.15747
56.1	-1294.25	-5.18799
56.2	-1297.91	-5.15747
56.3	-1303.41	-5.15747
56.4	-1305.24	-5.21851
56.5	-1304.93	-5.24902
56.6	-1304.93	-5.27954
56.7	-1305.85	-5.18799
56.8	-1305.85	-5.15747
56.9	-1308.9	-5.18799
57	-1306.46	-5.18799
57.1	-1302.19	-5.15747
57.2	-1306.15	-5.18799
57.3	-1307.37	-5.18799
57.4	-1306.46	-5.18799
57.5	-1310.73	-5.24902
57.6	-1308.9	-5.31006
57.7	-1302.49	-5.31006
57.8	-1303.41	-5.31006
57.9	-1306.15	-5.27954
58	-1306.15	-5.31006
58.1	-1301.57	-5.31006
58.2	-1293.95	-5.27954
58.3	-1297.3	-5.27954
58.4	-1306.46	-5.18799
58.5	-1303.71	-5.21851
58.6	-1297	-5.27954
58.7	-1301.57	-5.24902
58.8	-1301.88	-5.27954
58.9	-1297	-5.27954
59	-1297.91	-5.27954
59.1	-1299.13	-5.21851
59.2	-1304.63	-5.18799
59.3	-1311.65	-5.21851
59.4	-1312.87	-5.24902
59.5	-1309.2	-5.27954
59.6	-1303.41	-5.24902
59.7	-1301.88	-5.27954
59.8	-1304.63	-5.18799
59.9	-1305.54	-5.18799
60	-1305.54	-5.21851
60.1	-1310.42	-9.67407
60.2	-1315.92	-10.3149
60.3	-1438.9	-10.2539
60.4	-1719.06	-10.1013
60.5	-1822.51	-10.1013
60.6	-1820.98	-10.2539
60.7	-1823.12	-10.2844
60.8	-1817.32	-10.1013
60.9	-1811.52	-10.1929
61	-1809.39	-10.2844
61.1	-1817.32	-10.2234
61.2	-1824.04	-10.1013
61.3	-1824.34	-10.1318
61.4	-1824.34	-10.1929
61.5	-1819.46	-10.2844
61.6	-1811.83	-10.2844
61.7	-1813.35	-10.1929
61.8	-1810.61	-10.1318
61.9	-1805.11	-10.1318
62	-1805.11	-10.1318
62.1	-1813.96	-10.1318
62.2	-1825.26	-10.1013
62.3	-1822.51	-10.1318
62.4	-1819.46	-10.1318
62.5	-1821.9	-10.1624
62.6	-1820.98	-10.2234
62.7	-1824.04	-10.2844
62.8	-1819.76	-10.1929
62.9	-1809.08	-10.1013
63	-1805.42	-10.1013
63.1	-1804.5	-10.1318
63.2	-1800.84	-10.2234
63.3	-1801.45	-10.3149
63.4	-1809.08	-10.2539
63.5	-1813.96	-10.1624
63.6	-1813.05	-10.1929
63.7	-1815.49	-10.1318
63.8	-1820.68	-10.1013
63.9	-1825.56	-10.1013
64	-1824.04	-10.1929
64.1	-1824.95	-10.2539
64.2	-1826.48	-10.3455
64.3	-1823.12	-10.3149
64.4	-1811.83	-10.2844
64.5	-1805.73	-10.2234
64.6	-1807.25	-10.1929
64.7	-1810.61	-10.1624
64.8	-1813.66	-10.1624
64.9	-1811.22	-10.1929
65	-1808.17	-10.2234
65.1	-1810.3	-10.2539
65.2	-1811.22	-10.2844
65.3	-1810.91	-10.1318
65.4	-1805.11	-10.0708
65.5	-1792.6	-10.1318
65.6	-1784.97	-10.2539
65.7	-1786.19	-10.1929
65.8	-1793.52	-10.1929
65.9	-1806.34	-10.1929
66	-1810.3	-10.2539
66.1	-1810.3	-10.2539
66.2	-1813.35	-10.2539
66.3	-1815.8	-10.2234
66.4	-1820.98	-10.2234
66.5	-1821.29	-10.1318
66.6	-1812.44	-10.2234
66.7	-1811.83	-10.3149
66.8	-1810.3	-10.2234
66.9	-1804.2	-10.1318
67	-1802.98	-10.1318
67.1	-1807.56	-10.0708
67.2	-1809.08	-10.1318
67.3	-1814.27	-10.1318
67.4	-1812.44	-10.1318
67.5	-1804.81	-10.1929
67.6	-1801.15	-10.1624
67.7	-1803.59	-10.2234
67.8	-1807.56	-10.2844
67.9	-1804.2	-10.2844
68	-1795.04	-10.1013
68.1	-1798.71	-10.1013
68.2	-1797.79	-10.3149
68.3	-1791.38	-10.3455
68.4	-1794.43	-10.1624
68.5	-1800.84	-10.1013
68.6	-1797.79	-10.1318
68.7	-1798.1	-10.1318
68.8	-1808.17	-10.1929
68.9	-1818.85	-10.1929
69	-1819.15	-10.2844
69.1	-1815.19	-10.1929
69.2	-1810.91	-10.1624
69.3	-1810.91	-10.1929
69.4	-1808.47	-10.2234
69.5	-1797.18	-10.2539
69.6	-1806.95	-10.3149
69.7	-1818.85	-10.2844
69.8	-1819.46	-10.1318
69.9	-1814.58	-10.1013
70	-1809.39	-10.1318
70.1	-1811.22	-15.1367
70.2	-1821.59	-15.2283
70.3	-1985.47	-15.3503
70.4	-2235.41	-15.1978
70.5	-2289.12	-15.1367
70.6	-2278.75	-15.1672
70.7	-2280.58	-15.2588
70.8	-2282.41	-15.2283
70.9	-2297.67	-15.1367
71	-2303.47	-15.1367
71.1	-2299.5	-15.2588
71.2	-2297.06	-15.1367
71.3	-2291.56	-15.1672
71.4	-2293.09	-15.3198
71.5	-2292.48	-15.1978
71.6	-2272.95	-15.1367
71.7	-2264.71	-15.1978
71.8	-2281.49	-15.2588
71.9	-2291.87	-15.1367
72	-2296.14	-15.1367
72.1	-2297.06	-15.2588
72.2	-2301.64	-15.2283
72.3	-2305.91	-15.1062
72.4	-2305.3	-15.1062
72.5	-2289.12	-15.1367
72.6	-2282.1	-15.2283
72.7	-2285.16	-15.1367
72.8	-2282.71	-15.2893
72.9	-2288.21	-15.2893
73	-2296.75	-15.2283
73.1	-2302.86	-15.1672
73.2	-2313.84	-15.2588
73.3	-2306.52	-15.2893
73.4	-2284.55	-15.1367
73.5	-2284.85	-15.2283
73.6	-2301.64	-15.1367
73.7	-2297.06	-15.1978
73.8	-2286.99	-15.1062
73.9	-2292.48	-15.2588
74	-2292.18	-15.1672
74.1	-2288.82	-15.1978
74.2	-2289.43	-15.1062
74.3	-2283.33	-15.1672
74.4	-2296.14	-15.1367
74.5	-2297.97	-15.2588
74.6	-2296.14	-15.1062
74.7	-2301.33	-15.2588
74.8	-2293.4	-15.0757
74.9	-2291.26	-15.2893
75	-2291.87	-15.1367
75.1	-2294.01	-15.2588
75.2	-2298.28	-15.1672
75.3	-2299.5	-15.3198
75.4	-2296.45	-15.2283
75.5	-2299.5	-15.2283
75.6	-2309.88	-15.2283
75.7	-2319.03	-15.1367
75.8	-2326.35	-15.2893
75.9	-2325.74	-15.0757
76	-2319.34	-15.2283
76.1	-2322.08	-15.1367
76.2	-2317.5	-15.1367
76.3	-2316.28	-15.2283
76.4	-2318.73	-15.1367
76.5	-2313.84	-15.0757
76.6	-2312.93	-15.1978
76.7	-2311.71	-15.1062
76.8	-2291.56	-15.1672
76.9	-2288.21	-15.2588
77	-2308.65	-15.1367
77.1	-2313.54	-15.2283
77.2	-2314.15	-15.1672
77.3	-2321.47	-15.2283
77.4	-2320.25	-15.1367
77.5	-2309.88	-15.3503
77.6	-2318.42	-15.1672
77.7	-2325.44	-15.2893
77.8	-2323.61	-15.1672
77.9	-2323.91	-15.1367
78	-2336.73	-15.3198
78.1	-2342.83	-15.1367
78.2	-2322.39	-15.2283
78.3	-2308.04	-15.2893
78.4	-2312.93	-15.1367
78.5	-2304.08	-15.2588
78.6	-2293.4	-15.1672
78.7	-2291.87	-15.1672
78.8	-2301.94	-15.1672
78.9	-2314.76	-15.1978
79	-2312.93	-15.1367
79.1	-2315.06	-15.1672
79.2	-2338.56	-15.1978
79.3	-2342.83	-15.1367
79.4	-2326.05	-15.2893
79.5	-2313.84	-15.1672
79.6	-2322.08	-15.1062
79.7	-2330.02	-15.2283
79.8	-2337.04	-15.1062
79.9	-2344.36	-15.2893
80	-2336.73	-15.1672
80.1	-2326.05	-15.1672
80.2	-2327.27	-20.2332
80.3	-2373.35	-20.1416
80.4	-2606.51	-20.2942
80.5	-2806.7	-20.1416
80.6	-2808.84	-20.2942
80.7	-2795.41	-20.1111
80.8	-2798.46	-20.3247
80.9	-2796.94	-20.1111
81	-2796.02	-20.2637
81.1	-2789.31	-20.1416
81.2	-2775.88	-20.2942
81.3	-2773.13	-20.0806
81.4	-2770.08	-20.2637
81.5	-2762.76	-20.1416
81.6	-2757.57	-20.1416
81.7	-2743.53	-20.2332
81.8	-2728.88	-20.1111
81.9	-2742.92	-20.2332
82	-2767.03	-20.1111
82.1	-2773.13	-20.1721
82.2	-2782.59	-20.2026
82.3	-2797.85	-20.1111
82.4	-2799.68	-20.3247
82.5	-2796.94	-20.1416
82.6	-2786.87	-20.1721
82.7	-2789.61	-20.2942
82.8	-2804.57	-20.1416
82.9	-2804.26	-20.2637
83	-2787.48	-20.2026
83.1	-2779.54	-20.1416
83.2	-2782.29	-20.3247
83.3	-2792.05	-20.2637
83.4	-2792.66	-20.1721
83.5	-2794.49	-20.2942
83.6	-2805.48	-20.2637
83.7	-2813.72	-20.1721
83.8	-2812.5	-20.1111
83.9	-2802.12	-20.1416
84	-2796.33	-20.1416
84.1	-2801.21	-20.0806
84.2	-2808.53	-20.1111
84.3	-2796.94	-20.1111
84.4	-2779.24	-20.1111
84.5	-2789	-20.1416
84.6	-2794.19	-20.1416
84.7	-2795.72	-20.2026
84.8	-2801.82	-20.2026
84.9	-2803.96	-20.2026
85	-2801.51	-20.2637
85.1	-2794.8	-20.2637
85.2	-2785.95	-20.3247
85.3	-2785.95	-20.2942
85.4	-2773.44	-20.1416
85.5	-2767.03	-20.1416
85.6	-2783.51	-20.2332
85.7	-2789.61	-20.3247
85.8	-2776.79	-20.2637
85.9	-2775.27	-20.2026
86	-2780.15	-20.1416
86.1	-2785.95	-20.0806
86.2	-2798.16	-20.1416
86.3	-2808.53	-20.1111
86.4	-2799.99	-20.2026
86.5	-2786.56	-20.2332
