ATF	1.0
7	3     
"AcquisitionMode=Gap Free"
"Comment="
"YTop=10000,1000"
"YBottom=-10000,-1000"
"SweepStartTimesMS=0.000"
"SignalsExported=Im_Scaled,10_mv"
"Signals="	"Im_Scaled"	"10_mv"
"Time (s)"	"Trace #1 (pA)"	"Trace #1 (mV)"
0	569.153	19.6228
0.1	571.289	19.7449
0.2	576.782	19.6838
0.3	578.003	19.7144
0.4	582.581	19.7144
0.5	580.444	19.7449
0.6	578.613	19.7449
0.7	578.613	19.7449
0.8	579.224	19.7754
0.9	578.003	19.7144
1	574.036	19.7754
1.1	576.782	19.7144
1.2	585.022	19.7754
1.3	587.158	19.7449
1.4	588.379	19.7754
1.5	590.82	19.7754
1.6	597.534	19.7449
1.7	594.177	19.7449
1.8	579.224	19.5923
1.9	574.951	19.6838
2	579.224	19.6533
2.1	575.867	19.6838
2.2	577.393	19.6533
2.3	580.75	19.6838
2.4	588.379	19.7449
2.5	590.515	19.7449
2.6	587.769	19.7754
2.7	587.158	19.7449
2.8	584.717	19.7449
2.9	583.191	19.7449
3	590.21	19.7754
3.1	593.872	19.7449
3.2	595.398	19.7754
3.3	593.262	19.8059
3.4	581.97	19.7449
3.5	579.834	19.7754
3.6	580.75	19.6838
3.7	581.36	19.6533
3.8	584.106	19.5923
3.9	584.106	19.6228
4	579.529	19.6228
4.1	575.867	19.6228
4.2	580.139	19.6228
4.3	584.717	19.5923
4.4	587.463	19.6228
4.5	577.393	19.6228
4.6	575.867	19.6228
4.7	581.36	19.6228
4.8	587.769	19.7144
4.9	589.905	19.6533
5	584.412	19.6228
5.1	577.087	19.6533
5.2	576.172	19.6228
5.3	574.646	19.6533
5.4	576.172	19.6838
5.5	575.562	19.8059
5.6	576.782	19.7449
5.7	577.698	19.8059
5.8	580.75	19.8059
5.9	584.106	19.7754
6	584.717	19.7449
6.1	588.989	19.7449
6.2	586.853	19.8364
6.3	584.412	19.7144
6.4	587.769	19.8059
6.5	590.21	19.8059
6.6	589.905	19.7144
6.7	583.496	19.7144
6.8	581.97	19.5923
6.9	578.308	19.6838
7	575.562	19.6838
7.1	580.444	19.6533
7.2	586.243	19.6533
7.3	594.788	19.6533
7.4	592.957	19.7754
7.5	593.262	19.7449
7.6	587.158	19.7754
7.7	591.736	19.7754
7.8	599.06	19.6838
7.9	596.008	19.6838
8	596.924	19.6838
8.1	595.703	19.6228
8.2	596.924	19.6533
8.3	591.736	19.6838
8.4	592.957	19.7144
8.5	597.839	19.6228
8.6	593.872	19.5923
8.7	595.703	19.6838
8.8	597.534	19.6838
8.9	596.619	19.7449
9	598.145	19.8059
9.1	600.281	19.7144
9.2	601.807	19.6838
9.3	601.196	19.6228
9.4	600.281	19.6228
9.5	595.703	19.6838
9.6	599.06	19.6838
9.7	598.145	19.7449
9.8	595.703	19.7449
9.9	594.788	19.7144
10	599.06	19.6533
10.1	595.703	19.7144
10.2	592.957	14.7705
10.3	566.406	14.74
10.4	484.924	14.5874
10.5	447.998	14.7705
10.6	448.608	14.74
10.7	446.167	14.7705
10.8	440.674	14.7095
10.9	441.284	14.5874
11	446.472	14.74
11.1	445.251	14.7095
11.2	444.641	14.74
11.3	447.083	14.679
11.4	447.083	14.6484
11.5	445.557	14.7095
11.6	440.063	14.679
11.7	435.486	14.7095
11.8	441.895	14.801
11.9	441.284	14.7095
12	439.758	14.6484
12.1	443.42	14.6179
12.2	443.115	14.679
12.3	442.505	14.7705
12.4	444.946	14.74
12.5	445.862	14.7705
12.6	439.148	14.7705
12.7	436.096	14.74
12.8	440.674	14.6179
12.9	443.726	14.6179
13	441.895	14.6484
13.1	441.284	14.7705
13.2	441.895	14.801
13.3	446.777	14.7095
13.4	451.66	14.801
13.5	450.134	14.74
13.6	450.439	14.6484
13.7	445.557	14.6484
13.8	440.063	14.74
13.9	441.589	14.801
14	444.641	14.6484
14.1	442.81	14.5874
14.2	439.453	14.74
14.3	440.979	14.7705
14.4	441.284	14.74
14.5	442.505	14.7095
14.6	449.219	14.6179
14.7	450.134	14.7095
14.8	450.745	14.7705
14.9	449.524	14.7095
15	445.251	14.6484
15.1	444.946	14.6179
15.2	449.219	14.6179
15.3	448.608	14.7705
15.4	447.693	14.7705
15.5	451.66	14.6179
15.6	452.576	14.6179
15.7	454.407	14.679
15.8	458.374	14.7705
15.9	454.712	14.7705
16	450.439	14.6179
16.1	450.134	14.7705
16.2	447.998	14.74
16.3	449.524	14.5874
16.4	453.186	14.7705
16.5	450.745	14.74
16.6	446.777	14.6179
16.7	450.134	14.7705
16.8	450.134	14.6484
16.9	452.881	14.7095
17	455.627	14.7705
17.1	453.491	14.6179
17.2	452.271	14.6179
17.3	448.914	14.801
17.4	453.796	14.7095
17.5	454.712	14.7095
17.6	454.102	14.6179
17.7	453.796	14.74
17.8	456.848	14.801
17.9	457.458	14.6484
18	450.439	14.74
18.1	447.693	14.679
18.2	453.796	14.6179
18.3	455.627	14.7705
18.4	455.322	14.7705
18.5	456.238	14.74
18.6	453.491	14.74
18.7	450.439	14.74
18.8	453.186	14.7095
18.9	453.796	14.7705
19	450.745	14.74
19.1	451.05	14.6484
19.2	453.491	14.6484
19.3	458.374	14.6484
19.4	459.595	14.74
19.5	458.984	14.7705
19.6	456.543	14.7705
19.7	453.491	14.7705
19.8	452.881	14.7095
19.9	451.965	14.679
20	449.524	14.6179
20.1	448.303	14.5569
20.2	457.764	9.67407
20.3	449.524	9.61304
20.4	374.451	9.64355
20.5	310.059	9.70459
20.6	299.683	9.70459
20.7	299.988	9.79614
20.8	300.293	9.73511
20.9	302.429	9.73511
21	301.819	9.70459
21.1	299.683	9.70459
21.2	304.26	9.70459
21.3	308.228	9.70459
21.4	307.617	9.61304
21.5	307.617	9.67407
21.6	306.091	9.67407
21.7	303.04	9.67407
21.8	304.26	9.67407
21.9	305.786	9.67407
22	306.702	9.67407
22.1	309.143	9.70459
22.2	308.533	9.73511
22.3	309.753	9.79614
22.4	309.448	9.76563
22.5	308.533	9.76563
22.6	308.533	9.79614
22.7	310.974	9.73511
22.8	313.416	9.79614
22.9	309.448	9.76563
23	305.176	9.67407
23.1	308.228	9.67407
23.2	308.838	9.61304
23.3	307.007	9.73511
23.4	307.007	9.76563
23.5	307.922	9.76563
23.6	307.922	9.79614
23.7	307.312	9.76563
23.8	307.617	9.73511
23.9	304.26	9.79614
24	303.345	9.73511
24.1	304.26	9.73511
24.2	303.65	9.76563
24.3	301.514	9.73511
24.4	301.208	9.76563
24.5	300.293	9.73511
24.6	300.598	9.64355
24.7	303.04	9.70459
24.8	303.345	9.67407
24.9	305.176	9.67407
25	304.26	9.67407
25.1	300.903	9.64355
25.2	303.345	9.64355
25.3	303.04	9.70459
25.4	304.26	9.70459
25.5	308.228	9.73511
25.6	309.753	9.70459
25.7	310.974	9.73511
25.8	308.838	9.73511
25.9	306.702	9.73511
26	307.312	9.67407
26.1	309.143	9.70459
26.2	308.838	9.73511
26.3	308.838	9.73511
26.4	311.279	9.73511
26.5	310.669	9.76563
26.6	307.312	9.73511
26.7	307.922	9.79614
26.8	308.838	9.82666
26.9	307.312	9.67407
27	309.143	9.70459
27.1	311.279	9.70459
27.2	305.481	9.73511
27.3	306.396	9.76563
27.4	306.702	9.79614
27.5	304.871	9.70459
27.6	301.208	9.73511
27.7	303.65	9.79614
27.8	307.312	9.70459
27.9	307.007	9.79614
28	308.838	9.76563
28.1	309.753	9.552
28.2	309.143	9.67407
28.3	310.059	9.73511
28.4	307.617	9.73511
28.5	306.091	9.79614
28.6	307.922	9.76563
28.7	306.702	9.61304
28.8	304.565	9.64355
28.9	304.871	9.76563
29	304.565	9.70459
29.1	304.26	9.82666
29.2	304.565	9.79614
29.3	307.312	9.73511
29.4	306.396	9.76563
29.5	304.871	9.73511
29.6	307.922	9.67407
29.7	311.279	9.67407
29.8	309.448	9.67407
29.9	309.448	9.76563
30	309.143	9.76563
30.1	308.228	9.64355
30.2	307.617	9.64355
30.3	305.786	4.69971
30.4	285.339	4.69971
30.5	212.402	4.82178
30.6	166.931	4.73022
30.7	162.659	4.66919
30.8	162.964	4.82178
30.9	161.743	4.79126
31	164.795	4.60815
31.1	165.71	4.79126
31.2	163.879	4.82178
31.3	164.795	4.69971
31.4	164.185	4.76074
31.5	165.1	4.66919
31.6	166.321	4.63867
31.7	166.626	4.79126
31.8	164.49	4.85229
31.9	163.879	4.79126
32	161.743	4.79126
32.1	162.354	4.79126
32.2	165.71	4.76074
32.3	164.795	4.73022
32.4	163.879	4.69971
32.5	162.964	4.66919
32.6	162.354	4.82178
32.7	163.269	4.82178
32.8	163.879	4.76074
32.9	161.743	4.73022
33	162.048	4.69971
33.1	166.016	4.63867
33.2	166.321	4.66919
33.3	165.1	4.73022
33.4	164.49	4.69971
33.5	163.269	4.73022
33.6	162.659	4.66919
33.7	164.185	4.66919
33.8	163.269	4.73022
33.9	163.269	4.79126
34	165.71	4.69971
34.1	166.626	4.79126
34.2	163.879	4.73022
34.3	160.522	4.69971
34.4	162.048	4.66919
34.5	164.795	4.69971
34.6	164.49	4.66919
34.7	166.016	4.63867
34.8	164.795	4.69971
34.9	161.743	4.82178
35	161.133	4.79126
35.1	164.795	4.82178
35.2	165.405	4.76074
35.3	164.49	4.66919
35.4	164.49	4.76074
35.5	162.659	4.82178
35.6	162.354	4.76074
35.7	163.269	4.76074
35.8	164.49	4.82178
35.9	164.185	4.76074
36	163.574	4.73022
36.1	165.405	4.73022
36.2	165.1	4.66919
36.3	165.405	4.63867
36.4	166.321	4.69971
36.5	163.574	4.63867
36.6	163.269	4.63867
36.7	164.185	4.60815
36.8	164.795	4.73022
36.9	163.879	4.73022
37	161.743	4.73022
37.1	160.828	4.85229
37.2	159.912	4.79126
37.3	162.659	4.69971
37.4	163.879	4.69971
37.5	162.048	4.69971
37.6	162.964	4.76074
37.7	162.659	4.79126
37.8	163.879	4.85229
37.9	164.795	4.76074
38	164.185	4.69971
38.1	163.879	4.69971
38.2	164.49	4.76074
38.3	162.659	4.76074
38.4	162.354	4.66919
38.5	163.269	4.82178
38.6	163.879	4.76074
38.7	165.71	4.73022
38.8	166.321	4.60815
38.9	163.879	4.79126
39	164.49	4.76074
39.1	165.71	4.66919
39.2	164.49	4.66919
39.3	163.574	4.79126
39.4	162.659	4.73022
39.5	165.405	4.63867
39.6	166.626	4.76074
39.7	165.1	4.79126
39.8	165.71	4.63867
39.9	164.795	4.73022
40	163.574	4.82178
40.1	164.49	4.76074
40.2	165.405	-0.305176
40.3	149.841	-0.274658
40.4	79.9561	-0.213623
40.5	34.79	-0.244141
40.6	31.7383	-0.335693
40.7	32.0435	-0.335693
40.8	31.7383	-0.244141
40.9	32.3486	-0.183105
41	31.7383	-0.213623
41.1	31.7383	-0.305176
41.2	32.3486	-0.305176
41.3	32.6538	-0.213623
41.4	31.7383	-0.274658
41.5	31.7383	-0.335693
41.6	32.0435	-0.213623
41.7	31.4331	-0.213623
41.8	31.4331	-0.213623
41.9	31.1279	-0.335693
42	31.1279	-0.366211
42.1	32.0435	-0.183105
42.2	32.0435	-0.183105
42.3	31.7383	-0.274658
42.4	31.7383	-0.244141
42.5	32.3486	-0.244141
42.6	32.3486	-0.366211
42.7	32.6538	-0.335693
42.8	32.0435	-0.305176
42.9	31.4331	-0.366211
43	31.4331	-0.244141
43.1	31.7383	-0.213623
43.2	31.7383	-0.244141
43.3	32.3486	-0.244141
43.4	31.7383	-0.213623
43.5	31.7383	-0.274658
43.6	31.1279	-0.183105
43.7	31.4331	-0.213623
43.8	31.7383	-0.244141
43.9	31.7383	-0.213623
44	31.7383	-0.183105
44.1	32.0435	-0.183105
44.2	32.0435	-0.244141
44.3	31.7383	-0.213623
44.4	31.7383	-0.274658
44.5	32.3486	-0.366211
44.6	32.0435	-0.274658
44.7	31.7383	-0.183105
44.8	32.0435	-0.244141
44.9	31.7383	-0.244141
45	31.4331	-0.335693
45.1	31.7383	-0.366211
45.2	32.0435	-0.183105
45.3	31.7383	-0.274658
45.4	31.4331	-0.366211
45.5	31.7383	-0.183105
45.6	31.7383	-0.183105
45.7	31.7383	-0.305176
45.8	31.7383	-0.335693
45.9	31.7383	-0.183105
46	31.7383	-0.274658
46.1	32.0435	-0.274658
46.2	31.7383	-0.335693
46.3	31.7383	-0.366211
46.4	32.0435	-0.244141
46.5	31.7383	-0.213623
46.6	31.1279	-0.244141
46.7	31.7383	-0.213623
46.8	31.7383	-0.305176
46.9	31.4331	-0.305176
47	31.7383	-0.244141
47.1	32.0435	-0.213623
47.2	32.0435	-0.244141
47.3	31.7383	-0.213623
47.4	32.0435	-0.335693
47.5	32.0435	-0.335693
47.6	32.3486	-0.183105
47.7	32.0435	-0.274658
47.8	32.3486	-0.305176
47.9	32.0435	-0.335693
48	31.7383	-0.213623
48.1	31.7383	-0.213623
48.2	31.7383	-0.244141
48.3	31.7383	-0.366211
48.4	31.7383	-0.366211
48.5	32.0435	-0.244141
48.6	32.0435	-0.213623
48.7	31.7383	-0.244141
48.8	31.4331	-0.274658
48.9	31.4331	-0.305176
49	31.7383	-0.183105
49.1	32.0435	-0.274658
49.2	31.7383	-0.274658
49.3	31.4331	-0.213623
49.4	32.3486	-0.335693
49.5	31.7383	-0.183105
49.6	31.7383	-0.213623
49.7	31.7383	-0.335693
49.8	31.4331	-0.244141
49.9	31.7383	-0.274658
50	31.4331	-0.305176
50.1	31.7383	-0.305176
50.2	32.0435	-0.213623
50.3	32.0435	-5.18799
50.4	27.1606	-5.21851
50.5	-20.752	-5.24902
50.6	-75.0732	-5.24902
50.7	-83.9233	-5.34058
50.8	-83.0078	-5.31006
50.9	-84.5337	-5.21851
51	-86.3647	-5.21851
51.1	-86.3647	-5.18799
51.2	-85.144	-5.15747
51.3	-84.8389	-5.18799
51.4	-84.5337	-5.34058
51.5	-84.5337	-5.24902
51.6	-83.6182	-5.27954
51.7	-83.9233	-5.18799
51.8	-83.6182	-5.15747
51.9	-83.313	-5.18799
52	-84.5337	-5.18799
52.1	-85.7544	-5.21851
52.2	-85.144	-5.24902
52.3	-85.144	-5.31006
52.4	-86.0596	-5.34058
52.5	-85.4492	-5.24902
52.6	-84.8389	-5.18799
52.7	-84.8389	-5.18799
52.8	-83.313	-5.24902
52.9	-83.313	-5.24902
53	-85.4492	-5.21851
53.1	-85.7544	-5.24902
53.2	-85.144	-5.24902
53.3	-85.144	-5.21851
53.4	-84.8389	-5.24902
53.5	-83.6182	-5.31006
53.6	-84.2285	-5.21851
53.7	-85.144	-5.18799
53.8	-84.8389	-5.27954
53.9	-85.7544	-5.27954
54	-85.144	-5.18799
54.1	-84.5337	-5.18799
54.2	-85.4492	-5.21851
54.3	-85.144	-5.21851
54.4	-85.144	-5.18799
54.5	-85.144	-5.21851
54.6	-85.7544	-5.27954
54.7	-85.144	-5.24902
54.8	-83.9233	-5.24902
54.9	-83.313	-5.31006
55	-83.313	-5.31006
55.1	-82.7026	-5.31006
55.2	-83.313	-5.18799
55.3	-82.0923	-5.15747
55.4	-82.0923	-5.15747
55.5	-83.9233	-5.21851
55.6	-83.9233	-5.27954
55.7	-83.313	-5.31006
55.8	-83.6182	-5.18799
55.9	-83.0078	-5.12695
56	-83.6182	-5.24902
56.1	-84.5337	-5.24902
56.2	-85.7544	-5.27954
56.3	-84.5337	-5.31006
56.4	-85.144	-5.34058
56.5	-86.0596	-5.31006
56.6	-85.144	-5.31006
56.7	-84.5337	-5.27954
56.8	-84.5337	-5.18799
56.9	-84.8389	-5.24902
57	-84.8389	-5.21851
57.1	-84.2285	-5.18799
57.2	-84.2285	-5.21851
57.3	-84.2285	-5.15747
57.4	-83.313	-5.15747
57.5	-82.7026	-5.21851
57.6	-82.3975	-5.18799
57.7	-82.3975	-5.27954
57.8	-83.6182	-5.31006
57.9	-83.6182	-5.27954
58	-83.9233	-5.34058
58.1	-84.8389	-5.34058
58.2	-84.5337	-5.27954
58.3	-84.2285	-5.34058
58.4	-84.5337	-5.31006
58.5	-86.0596	-5.24902
58.6	-85.4492	-5.27954
58.7	-84.5337	-5.24902
58.8	-83.9233	-5.21851
58.9	-84.2285	-5.27954
59	-83.9233	-5.18799
59.1	-83.9233	-5.27954
59.2	-83.9233	-5.27954
59.3	-84.5337	-5.27954
59.4	-85.144	-5.31006
59.5	-85.7544	-5.27954
59.6	-83.313	-5.21851
59.7	-83.0078	-5.18799
59.8	-84.5337	-5.18799
59.9	-85.7544	-5.12695
60	-86.3647	-5.24902
60.1	-85.144	-5.21851
60.2	-83.0078	-10.2234
60.3	-86.6699	-10.3455
60.4	-126.343	-10.2234
60.5	-177.307	-10.1624
60.6	-189.209	-10.1624
60.7	-184.631	-10.1318
60.8	-183.716	-10.1318
60.9	-184.021	-10.2234
61	-184.021	-10.1624
61.1	-183.716	-10.2234
61.2	-183.411	-10.3149
61.3	-182.8	-10.1318
61.4	-183.716	-10.1624
61.5	-182.8	-10.2234
61.6	-184.937	-10.1624
61.7	-184.631	-10.2539
61.8	-182.19	-10.2844
61.9	-182.8	-10.2539
62	-186.768	-10.2234
62.1	-187.683	-10.2539
62.2	-184.631	-10.1929
62.3	-183.716	-10.1929
62.4	-185.242	-10.1929
62.5	-186.157	-10.1929
62.6	-184.021	-10.2234
62.7	-181.58	-10.3149
62.8	-184.326	-10.1929
62.9	-186.157	-10.1929
63	-187.988	-10.2234
63.1	-186.462	-10.1929
63.2	-182.495	-10.1624
63.3	-182.19	-10.1929
63.4	-181.885	-10.1929
63.5	-181.885	-10.2844
63.6	-181.58	-10.3455
63.7	-179.749	-10.2234
63.8	-181.274	-10.1318
63.9	-180.664	-10.1624
64	-183.105	-10.1013
64.1	-184.937	-10.1318
64.2	-183.411	-10.2234
64.3	-181.885	-10.3149
64.4	-181.885	-10.2234
64.5	-185.852	-10.1624
64.6	-187.988	-10.1929
64.7	-186.157	-10.2844
64.8	-181.274	-10.1624
64.9	-180.054	-10.1929
65	-180.359	-10.2234
65.1	-177.917	-10.2539
65.2	-177.612	-10.1929
65.3	-177.917	-10.1624
65.4	-178.223	-10.1929
65.5	-180.969	-10.3149
65.6	-183.105	-10.3149
65.7	-180.969	-10.1624
65.8	-180.664	-10.1318
65.9	-179.443	-10.1929
66	-179.138	-10.1929
66.1	-178.528	-10.2539
66.2	-177.917	-10.3149
66.3	-178.223	-10.1624
66.4	-179.443	-10.1013
66.5	-180.359	-10.1624
66.6	-177.612	-10.2234
66.7	-178.833	-10.2844
66.8	-184.326	-10.1624
66.9	-183.716	-10.1929
67	-179.749	-10.1624
67.1	-177.917	-10.2539
67.2	-180.359	-10.3149
67.3	-182.495	-10.2539
67.4	-181.274	-10.1624
67.5	-178.223	-10.1624
67.6	-176.697	-10.1013
67.7	-178.528	-10.1318
67.8	-181.274	-10.1318
67.9	-181.58	-10.1318
68	-183.716	-10.1318
68.1	-182.495	-10.2234
68.2	-181.58	-10.2234
68.3	-180.054	-10.2539
68.4	-177.612	-10.2844
68.5	-176.697	-10.1624
68.6	-177.307	-10.1013
68.7	-179.443	-10.2539
68.8	-180.664	-10.1929
68.9	-181.885	-10.2539
69	-180.664	-10.3455
69.1	-180.359	-10.2234
69.2	-181.885	-10.1318
69.3	-180.969	-10.1624
69.4	-181.885	-10.1624
69.5	-184.021	-10.1624
69.6	-180.969	-10.3149
69.7	-179.749	-10.2539
69.8	-181.885	-10.1013
69.9	-184.021	-10.1624
70	-185.852	-10.2234
70.1	-186.157	-10.1624
70.2	-186.157	-15.2893
70.3	-193.481	-15.2893
70.4	-234.375	-15.2588
70.5	-262.146	-15.1978
70.6	-267.944	-15.1672
70.7	-268.25	-15.1672
70.8	-266.113	-15.2588
70.9	-268.555	-15.2588
71	-265.198	-15.1062
71.1	-265.503	-15.1062
71.2	-265.503	-15.1672
71.3	-261.536	-15.1062
71.4	-265.808	-15.1062
71.5	-268.25	-15.1367
71.6	-263.672	-15.1062
71.7	-266.113	-15.1367
71.8	-268.555	-15.1978
71.9	-263.367	-15.2283
72	-258.484	-15.2588
72.1	-260.315	-15.2893
72.2	-261.841	-15.1978
72.3	-262.451	-15.1978
72.4	-265.503	-15.1978
72.5	-266.418	-15.0757
72.6	-265.198	-15.1062
72.7	-262.451	-15.1978
72.8	-266.418	-15.1672
72.9	-273.438	-15.2283
73	-268.86	-15.2893
73.1	-260.315	-15.1978
73.2	-260.62	-15.1672
73.3	-260.01	-15.1978
73.4	-257.263	-15.1367
73.5	-260.01	-15.1367
73.6	-261.536	-15.1978
73.7	-260.315	-15.1978
73.8	-256.653	-15.1978
73.9	-257.874	-15.3198
74	-260.925	-15.2283
74.1	-261.841	-15.2588
74.2	-264.587	-15.3198
74.3	-264.282	-15.1367
74.4	-260.62	-15.1367
74.5	-259.094	-15.1978
74.6	-261.841	-15.2588
74.7	-263.367	-15.2588
74.8	-263.367	-15.3503
74.9	-265.198	-15.2588
75	-264.282	-15.2588
75.1	-259.705	-15.3198
75.2	-260.925	-15.2588
75.3	-263.672	-15.2893
75.4	-264.893	-15.3198
75.5	-266.113	-15.2893
75.6	-262.756	-15.1978
75.7	-260.315	-15.2283
75.8	-264.282	-15.2283
75.9	-267.334	-15.2283
76	-266.724	-15.2893
76.1	-268.25	-15.3198
76.2	-267.334	-15.2283
76.3	-265.198	-15.2588
76.4	-266.113	-15.3198
76.5	-265.198	-15.2588
76.6	-263.672	-15.2893
76.7	-262.451	-15.2893
76.8	-262.146	-15.2588
76.9	-264.587	-15.2283
77	-260.62	-15.2283
77.1	-261.23	-15.1062
77.2	-260.62	-15.1367
77.3	-256.653	-15.1978
77.4	-262.451	-15.1367
77.5	-269.775	-15.1978
77.6	-269.47	-15.2283
77.7	-271.301	-15.1978
77.8	-272.217	-15.1367
77.9	-267.639	-15.1978
78	-266.724	-15.1367
78.1	-267.639	-15.1367
78.2	-265.808	-15.1672
78.3	-266.724	-15.1978
78.4	-268.86	-15.2283
78.5	-269.47	-15.2893
78.6	-267.334	-15.2893
78.7	-266.113	-15.2588
78.8	-269.47	-15.1978
78.9	-268.86	-15.1978
79	-272.827	-15.1062
79.1	-272.522	-15.1672
79.2	-267.334	-15.1978
79.3	-261.536	-15.1672
79.4	-262.146	-15.1672
79.5	-265.808	-15.2588
79.6	-261.23	-15.2588
79.7	-263.367	-15.2893
79.8	-268.86	-15.3198
79.9	-266.724	-15.1978
80	-265.198	-15.1672
80.1	-262.451	-15.1672
80.2	-262.756	-15.1367
80.3	-261.536	-15.1367
80.4	-262.756	-20.1721
80.5	-263.062	-20.2026
80.6	-281.067	-20.2942
80.7	-321.96	-20.1721
80.8	-333.557	-20.2026
80.9	-323.181	-20.2637
81	-331.116	-20.1416
81.1	-342.102	-20.1721
81.2	-332.336	-20.2332
81.3	-329.285	-20.2332
81.4	-332.947	-20.2026
81.5	-330.505	-20.2332
81.6	-333.252	-20.1416
81.7	-333.557	-20.2026
81.8	-331.421	-20.2942
81.9	-329.285	-20.1721
82	-332.031	-20.1721
82.1	-334.778	-20.1721
82.2	-331.421	-20.2332
82.3	-329.59	-20.3552
82.4	-327.148	-20.2942
82.5	-322.876	-20.2332
82.6	-326.538	-20.1416
82.7	-324.097	-20.1721
82.8	-325.928	-20.1416
82.9	-333.252	-20.2637
83	-329.895	-20.2332
83.1	-327.454	-20.2332
83.2	-326.538	-20.2637
83.3	-328.674	-20.2637
83.4	-325.012	-20.2637
83.5	-327.148	-20.2942
83.6	-331.116	-20.2332
83.7	-329.59	-20.1111
83.8	-332.031	-20.1721
83.9	-326.843	-20.1721
84	-323.486	-20.2332
84.1	-328.979	-20.2942
84.2	-335.693	-20.2026
84.3	-335.693	-20.1721
84.4	-328.979	-20.2026
84.5	-328.064	-20.1721
84.6	-327.148	-20.1721
84.7	-325.317	-20.2942
84.8	-327.454	-20.2637
84.9	-329.59	-20.2942
85	-328.064	-20.2942
85.1	-325.928	-20.2942
85.2	-326.843	-20.2026
85.3	-327.759	-20.1111
85.4	-329.895	-20.2026
85.5	-334.167	-20.2942
85.6	-329.285	-20.1416
85.7	-328.064	-20.2332
85.8	-334.778	-20.2026
85.9	-332.947	-20.1721
86	-328.979	-20.2637
86.1	-328.979	-20.1416
86.2	-321.655	-20.2637
86.3	-320.129	-20.2637
86.4	-326.538	-20.1416
86.5	-326.843	-20.2332
86.6	-324.707	-20.2637
86.7	-327.454	-20.1721
86.8	-332.336	-20.1721
86.9	-334.167	-20.1721
87	-330.505	-20.3247
87.1	-331.421	-20.1111
87.2	-329.59	-20.2026
87.3	-324.707	-20.2637
87.4	-325.317	-20.1416
