ATF	1.0
7	3     
"AcquisitionMode=Gap Free"
"Comment="
"YTop=10000,1000"
"YBottom=-10000,-1000"
"SweepStartTimesMS=0.000"
"SignalsExported=Im_Scaled,10_mv"
"Signals="	"Im_Scaled"	"10_mv"
"Time (s)"	"Trace #1 (pA)"	"Trace #1 (mV)"
0	2005	19.7754
0.1	2009.89	19.6838
0.2	2006.53	19.6228
0.3	1988.22	19.7144
0.4	1969.91	19.7754
0.5	1965.94	19.7144
0.6	1964.72	19.6838
0.7	1961.36	19.7144
0.8	1973.27	19.7754
0.9	1985.78	19.6838
1	1978.45	19.6838
1.1	1965.33	19.7449
1.2	1968.08	19.7144
1.3	1969.91	19.6533
1.4	1959.23	19.6533
1.5	1948.85	19.6838
1.6	1934.51	19.6228
1.7	1921.08	19.6228
1.8	1912.54	19.6838
1.9	1906.13	19.6838
2	1904.91	19.6533
2.1	1905.52	19.7144
2.2	1907.04	19.7449
2.3	1901.86	19.7754
2.4	1896.67	19.7144
2.5	1897.89	19.8059
2.6	1895.14	19.7754
2.7	1878.36	19.7754
2.8	1866.46	19.6533
2.9	1866.15	19.6838
3	1863.71	19.7144
3.1	1860.66	19.7449
3.2	1856.69	19.6838
3.3	1856.99	19.7144
3.4	1862.18	19.6228
3.5	1866.46	19.6838
3.6	1872.25	19.6533
3.7	1873.78	19.6838
3.8	1874.08	19.6533
3.9	1864.32	19.6533
4	1850.28	19.7144
4.1	1852.42	19.7449
4.2	1853.64	19.8059
4.3	1841.43	19.7449
4.4	1831.36	19.6838
4.5	1829.53	19.6533
4.6	1826.78	19.6838
4.7	1824.34	19.7144
4.8	1823.43	19.7754
4.9	1831.05	19.7754
5	1827.7	19.7754
5.1	1827.7	19.5923
5.2	1844.18	19.6838
5.3	1849.06	19.7754
5.4	1844.79	19.7754
5.5	1841.43	19.5923
5.6	1840.82	19.7144
5.7	1843.87	19.8059
5.8	1831.05	19.7144
5.9	1823.43	19.6228
6	1835.94	19.7144
6.1	1844.79	19.8364
6.2	1833.5	19.7449
6.3	1821.9	19.5923
6.4	1810.61	19.7144
6.5	1807.86	19.8364
6.6	1817.02	19.6533
6.7	1821.59	19.6838
6.8	1820.98	19.7754
6.9	1817.63	19.7754
7	1811.52	19.6838
7.1	1806.03	19.7449
7.2	1802.37	19.7449
7.3	1798.71	19.7754
7.4	1792.6	19.7754
7.5	1787.72	19.6838
7.6	1784.36	19.6228
7.7	1779.17	19.6533
7.8	1783.14	19.8059
7.9	1784.36	19.8059
8	1784.36	19.7144
8.1	1785.28	19.6533
8.2	1777.95	19.7449
8.3	1779.17	19.8364
8.4	1787.11	19.7449
8.5	1799.62	19.6228
8.6	1795.65	19.7449
8.7	1785.89	19.7449
8.8	1785.28	19.6838
8.9	1789.55	19.6838
9	1793.21	19.7144
9.1	1799.01	19.8059
9.2	1806.03	19.7449
9.3	1795.35	19.6533
9.4	1780.4	19.6228
9.5	1772.46	19.7144
9.6	1767.58	19.7754
9.7	1765.75	19.7754
9.8	1765.75	19.7449
9.9	1768.49	19.5923
10	1769.41	19.6533
10.1	1773.68	19.6533
10.2	1779.48	19.7144
10.3	1780.09	14.74
10.4	1723.94	14.7705
10.5	1520.08	14.801
10.6	1412.96	14.679
10.7	1416.93	14.6179
10.8	1422.73	14.7095
10.9	1428.83	14.801
11	1432.8	14.7095
11.1	1433.11	14.6484
11.2	1439.51	14.7095
11.3	1446.84	14.7705
11.4	1451.42	14.7705
11.5	1454.16	14.679
11.6	1455.99	14.6179
11.7	1456.6	14.74
11.8	1456.91	14.801
11.9	1451.11	14.74
12	1450.5	14.5874
12.1	1462.71	14.679
12.2	1477.97	14.801
12.3	1481.63	14.7705
12.4	1480.71	14.7095
12.5	1476.75	14.5874
12.6	1472.78	14.6179
12.7	1469.12	14.7095
12.8	1464.23	14.74
12.9	1466.06	14.7705
13	1471.56	14.74
13.1	1479.8	14.801
13.2	1482.85	14.8315
13.3	1484.07	14.801
13.4	1484.99	14.7705
13.5	1476.75	14.74
13.6	1470.64	14.7705
13.7	1470.34	14.7095
13.8	1466.98	14.6484
13.9	1470.95	14.6484
14	1481.63	14.74
14.1	1492	14.7705
14.2	1492.61	14.7705
14.3	1489.26	14.7705
14.4	1484.38	14.74
14.5	1474.3	14.801
14.6	1466.37	14.7705
14.7	1466.06	14.7705
14.8	1467.29	14.74
14.9	1468.81	14.7705
15	1470.95	14.801
15.1	1473.69	14.7095
15.2	1469.42	14.6484
15.3	1469.12	14.74
15.4	1477.66	14.7705
15.5	1478.27	14.7705
15.6	1478.58	14.7095
15.7	1482.54	14.74
15.8	1485.9	14.74
15.9	1485.6	14.6484
16	1487.43	14.679
16.1	1488.95	14.74
16.2	1484.68	14.7705
16.3	1485.6	14.6484
16.4	1487.73	14.7095
16.5	1486.21	14.7705
16.6	1484.38	14.6179
16.7	1481.02	14.74
16.8	1487.73	14.801
16.9	1491.7	14.6179
17	1486.21	14.6484
17.1	1481.63	14.8315
17.2	1480.1	14.6484
17.3	1481.63	14.6484
17.4	1487.12	14.74
17.5	1486.21	14.7705
17.6	1480.41	14.6484
17.7	1476.14	14.679
17.8	1480.71	14.74
17.9	1491.39	14.7095
18	1495.67	14.74
18.1	1495.67	14.801
18.2	1495.67	14.7705
18.3	1492.31	14.6484
18.4	1489.56	14.6484
18.5	1491.7	14.74
18.6	1497.8	14.74
18.7	1506.04	14.74
18.8	1510.93	14.6484
18.9	1513.37	14.7095
19	1513.06	14.7705
19.1	1506.04	14.6179
19.2	1495.97	14.7095
19.3	1494.14	14.7705
19.4	1495.97	14.7095
19.5	1491.39	14.6179
19.6	1485.29	14.801
19.7	1487.43	14.6484
19.8	1487.43	14.74
19.9	1489.26	14.6179
20	1493.23	14.7095
20.1	1491.39	14.74
20.2	1484.38	9.67407
20.3	1466.98	9.76563
20.4	1300.66	9.64355
20.5	1086.73	9.79614
20.6	1046.75	9.67407
20.7	1056.21	9.73511
20.8	1055.91	9.73511
20.9	1059.27	9.70459
21	1062.01	9.76563
21.1	1069.64	9.64355
21.2	1077.27	9.73511
21.3	1077.27	9.76563
21.4	1079.1	9.64355
21.5	1081.54	9.76563
21.6	1077.27	9.70459
21.7	1071.78	9.76563
21.8	1073.3	9.64355
21.9	1078.49	9.70459
22	1081.54	9.67407
22.1	1081.54	9.76563
22.2	1087.65	9.64355
22.3	1092.22	9.76563
22.4	1090.7	9.67407
22.5	1088.26	9.76563
22.6	1088.26	9.70459
22.7	1090.09	9.73511
22.8	1091	9.70459
22.9	1091.61	9.73511
23	1093.44	9.79614
23.1	1094.67	9.64355
23.2	1091.92	9.79614
23.3	1093.44	9.70459
23.4	1096.5	9.67407
23.5	1096.5	9.73511
23.6	1100.16	9.73511
23.7	1103.82	9.61304
23.8	1104.74	9.67407
23.9	1105.96	9.70459
24	1110.23	9.79614
24.1	1110.53	9.61304
24.2	1110.84	9.73511
24.3	1110.84	9.76563
24.4	1108.4	9.73511
24.5	1109.01	9.64355
24.6	1111.45	9.70459
24.7	1114.81	9.70459
24.8	1114.81	9.64355
24.9	1113.59	9.76563
25	1113.59	9.73511
25.1	1108.09	9.58252
25.2	1107.18	9.76563
25.3	1109.01	9.82666
25.4	1111.45	9.70459
25.5	1109.92	9.61304
25.6	1106.26	9.79614
25.7	1109.92	9.70459
25.8	1110.84	9.70459
25.9	1106.57	9.76563
26	1106.26	9.70459
26.1	1105.65	9.73511
26.2	1105.35	9.79614
26.3	1106.57	9.73511
26.4	1109.62	9.64355
26.5	1112.06	9.70459
26.6	1109.01	9.76563
26.7	1103.82	9.76563
26.8	1109.01	9.73511
26.9	1111.45	9.67407
27	1106.87	9.64355
27.1	1108.4	9.70459
27.2	1112.06	9.73511
27.3	1114.5	9.76563
27.4	1112.37	9.85718
27.5	1108.4	9.70459
27.6	1107.48	9.61304
27.7	1107.18	9.67407
27.8	1106.57	9.76563
27.9	1109.62	9.76563
28	1113.59	9.73511
28.1	1109.01	9.73511
28.2	1102.6	9.61304
28.3	1101.99	9.61304
28.4	1104.74	9.79614
28.5	1107.48	9.79614
28.6	1109.01	9.73511
28.7	1109.62	9.61304
28.8	1113.59	9.64355
28.9	1116.33	9.70459
29	1115.11	9.76563
29.1	1111.15	9.76563
29.2	1112.98	9.61304
29.3	1112.67	9.73511
29.4	1108.4	9.82666
29.5	1111.15	9.67407
29.6	1113.28	9.70459
29.7	1109.31	9.76563
29.8	1105.96	9.67407
29.9	1108.4	9.61304
30	1113.59	4.76074
30.1	1111.15	4.76074
30.2	979.309	4.73022
30.3	718.384	4.66919
30.4	630.798	4.73022
30.5	635.071	4.76074
30.6	633.85	4.73022
30.7	635.681	4.69971
30.8	638.123	4.79126
30.9	637.512	4.82178
31	636.292	4.63867
31.1	635.376	4.76074
31.2	636.597	4.82178
31.3	639.954	4.66919
31.4	643.311	4.69971
31.5	643.616	4.79126
31.6	643.005	4.82178
31.7	643.311	4.66919
31.8	644.226	4.73022
31.9	644.531	4.79126
32	644.836	4.69971
32.1	643.005	4.69971
32.2	641.479	4.79126
32.3	643.005	4.79126
32.4	644.836	4.69971
32.5	645.447	4.73022
32.6	643.616	4.79126
32.7	642.395	4.79126
32.8	642.395	4.69971
32.9	645.142	4.76074
33	647.583	4.69971
33.1	648.499	4.76074
33.2	647.583	4.82178
33.3	647.278	4.63867
33.4	645.142	4.76074
33.5	646.362	4.85229
33.6	646.973	4.69971
33.7	646.362	4.82178
33.8	646.362	4.76074
33.9	648.193	4.66919
34	650.024	4.76074
34.1	651.55	4.79126
34.2	653.381	4.73022
34.3	653.992	4.69971
34.4	652.771	4.76074
34.5	651.855	4.69971
34.6	651.245	4.60815
34.7	650.94	4.73022
34.8	651.855	4.82178
34.9	651.245	4.82178
35	648.499	4.79126
35.1	648.499	4.82178
35.2	650.635	4.73022
35.3	650.33	4.73022
35.4	651.245	4.82178
35.5	650.024	4.69971
35.6	647.583	4.66919
35.7	646.973	4.79126
35.8	648.804	4.82178
35.9	649.109	4.79126
36	650.024	4.79126
36.1	651.55	4.69971
36.2	651.245	4.73022
36.3	650.024	4.73022
36.4	650.33	4.73022
36.5	650.33	4.73022
36.6	650.33	4.76074
36.7	652.161	4.82178
36.8	652.771	4.73022
36.9	653.076	4.66919
37	653.687	4.76074
37.1	653.076	4.79126
37.2	652.466	4.69971
37.3	651.55	4.76074
37.4	651.245	4.79126
37.5	651.55	4.60815
37.6	651.245	4.66919
37.7	653.076	4.85229
37.8	652.771	4.88281
37.9	652.771	4.69971
38	656.128	4.66919
38.1	658.264	4.73022
38.2	657.959	4.76074
38.3	656.128	4.79126
38.4	653.687	4.66919
38.5	653.381	4.82178
38.6	655.518	4.66919
38.7	656.433	4.76074
38.8	655.823	4.76074
38.9	652.771	4.73022
39	652.771	4.82178
39.1	654.602	4.63867
39.2	654.907	4.73022
39.3	654.907	4.66919
39.4	654.297	4.82178
39.5	654.602	4.66919
39.6	654.907	4.76074
39.7	654.907	4.73022
39.8	654.602	4.66919
39.9	654.907	4.82178
40	655.212	4.73022
40.1	655.823	4.82178
40.2	650.94	-0.305176
40.3	527.954	-0.213623
40.4	245.972	-0.274658
40.5	133.362	-0.305176
40.6	135.803	-0.152588
40.7	134.888	-0.244141
40.8	134.583	-0.366211
40.9	134.277	-0.274658
41	134.888	-0.244141
41.1	134.583	-0.305176
41.2	134.583	-0.213623
41.3	134.277	-0.213623
41.4	134.277	-0.305176
41.5	134.277	-0.213623
41.6	133.972	-0.274658
41.7	133.972	-0.335693
41.8	134.277	-0.183105
41.9	134.583	-0.183105
42	134.583	-0.274658
42.1	134.277	-0.335693
42.2	134.888	-0.244141
42.3	134.888	-0.183105
42.4	135.193	-0.305176
42.5	134.888	-0.305176
42.6	134.583	-0.213623
42.7	134.888	-0.213623
42.8	135.193	-0.244141
42.9	134.888	-0.213623
43	134.888	-0.305176
43.1	134.277	-0.274658
43.2	133.057	-0.213623
43.3	133.667	-0.244141
43.4	134.277	-0.396729
43.5	134.888	-0.244141
43.6	134.888	-0.152588
43.7	134.888	-0.305176
43.8	135.193	-0.305176
43.9	134.583	-0.274658
44	134.888	-0.183105
44.1	134.888	-0.305176
44.2	135.193	-0.213623
44.3	135.498	-0.183105
44.4	135.193	-0.335693
44.5	134.888	-0.213623
44.6	134.888	-0.305176
44.7	134.583	-0.274658
44.8	134.583	-0.152588
44.9	135.193	-0.305176
45	135.498	-0.213623
45.1	134.888	-0.274658
45.2	134.583	-0.335693
45.3	135.498	-0.213623
45.4	135.803	-0.366211
45.5	135.193	-0.213623
45.6	135.803	-0.213623
45.7	135.498	-0.305176
45.8	135.193	-0.244141
45.9	135.193	-0.244141
46	134.888	-0.366211
46.1	134.888	-0.213623
46.2	135.193	-0.152588
46.3	135.498	-0.335693
46.4	135.193	-0.244141
46.5	135.498	-0.183105
46.6	135.803	-0.366211
46.7	135.193	-0.305176
46.8	135.498	-0.183105
46.9	135.803	-0.305176
47	135.193	-0.183105
47.1	136.108	-0.244141
47.2	135.803	-0.244141
47.3	135.803	-0.244141
47.4	135.803	-0.274658
47.5	135.803	-0.213623
47.6	135.803	-0.274658
47.7	134.583	-0.244141
47.8	134.888	-0.244141
47.9	135.803	-0.305176
48	136.108	-0.213623
48.1	135.803	-0.305176
48.2	135.498	-0.213623
48.3	135.193	-0.305176
48.4	134.888	-0.274658
48.5	135.193	-0.183105
48.6	135.803	-0.274658
48.7	135.498	-0.305176
48.8	135.803	-0.213623
48.9	135.193	-0.335693
49	135.193	-0.274658
49.1	135.193	-0.152588
49.2	135.498	-0.183105
49.3	135.193	-0.274658
49.4	134.888	-0.213623
49.5	134.583	-0.244141
49.6	134.583	-0.366211
49.7	134.888	-0.244141
49.8	134.888	-0.152588
49.9	135.193	-0.274658
50	134.277	-0.305176
50.1	135.193	-0.244141
50.2	134.583	-5.18799
50.3	38.7573	-5.31006
50.4	-245.972	-5.18799
50.5	-387.268	-5.18799
50.6	-391.235	-5.24902
50.7	-392.761	-5.18799
50.8	-392.761	-5.21851
50.9	-393.677	-5.21851
51	-393.677	-5.24902
51.1	-392.761	-5.27954
51.2	-393.066	-5.15747
51.3	-392.456	-5.21851
51.4	-391.235	-5.31006
51.5	-391.235	-5.18799
51.6	-391.846	-5.18799
51.7	-391.846	-5.34058
51.8	-390.93	-5.27954
51.9	-390.625	-5.15747
52	-391.541	-5.21851
52.1	-392.456	-5.24902
52.2	-393.066	-5.15747
52.3	-393.982	-5.34058
52.4	-394.287	-5.21851
52.5	-393.677	-5.21851
52.6	-393.982	-5.27954
52.7	-393.982	-5.12695
52.8	-393.982	-5.31006
52.9	-394.287	-5.21851
53	-392.151	-5.21851
53.1	-392.456	-5.27954
53.2	-393.677	-5.12695
53.3	-393.372	-5.31006
53.4	-393.372	-5.12695
53.5	-392.761	-5.31006
53.6	-392.761	-5.18799
53.7	-392.151	-5.31006
53.8	-391.235	-5.15747
53.9	-391.541	-5.27954
54	-391.541	-5.18799
54.1	-391.541	-5.31006
54.2	-392.456	-5.18799
54.3	-393.066	-5.34058
54.4	-393.066	-5.15747
54.5	-392.761	-5.27954
54.6	-392.456	-5.12695
54.7	-392.456	-5.24902
54.8	-391.846	-5.18799
54.9	-392.151	-5.24902
55	-391.541	-5.27954
55.1	-392.151	-5.18799
55.2	-393.677	-5.31006
55.3	-393.372	-5.12695
55.4	-391.846	-5.27954
55.5	-392.761	-5.18799
55.6	-393.982	-5.21851
55.7	-393.982	-5.34058
55.8	-393.372	-5.15747
55.9	-393.372	-5.27954
56	-393.677	-5.21851
56.1	-393.677	-5.18799
56.2	-392.151	-5.24902
56.3	-392.151	-5.18799
56.4	-392.151	-5.34058
56.5	-391.541	-5.18799
56.6	-390.625	-5.27954
56.7	-391.235	-5.15747
56.8	-393.066	-5.31006
56.9	-393.982	-5.15747
57	-393.372	-5.24902
57.1	-393.677	-5.24902
57.2	-391.846	-5.31006
57.3	-392.151	-5.21851
57.4	-392.761	-5.21851
57.5	-393.066	-5.27954
57.6	-392.761	-5.12695
57.7	-392.456	-5.31006
57.8	-392.761	-5.24902
57.9	-393.677	-5.18799
58	-393.372	-5.31006
58.1	-392.761	-5.24902
58.2	-392.761	-5.15747
58.3	-392.151	-5.24902
58.4	-392.151	-5.27954
58.5	-393.372	-5.12695
58.6	-393.372	-5.24902
58.7	-391.846	-5.31006
58.8	-391.235	-5.18799
58.9	-390.93	-5.21851
59	-391.846	-5.31006
59.1	-392.456	-5.18799
59.2	-393.066	-5.27954
59.3	-393.372	-5.24902
59.4	-394.287	-5.15747
59.5	-393.372	-5.24902
59.6	-392.456	-5.21851
59.7	-393.982	-5.21851
59.8	-394.592	-5.24902
59.9	-393.677	-5.18799
60	-393.372	-5.27954
60.1	-393.066	-5.15747
60.2	-392.761	-5.27954
60.3	-392.761	-10.1013
60.4	-455.933	-10.2234
60.5	-728.149	-10.1929
60.6	-905.762	-10.1929
60.7	-916.443	-10.2539
60.8	-913.391	-10.1929
60.9	-913.696	-10.2844
61	-915.527	-10.2234
61.1	-915.833	-10.1318
61.2	-911.56	-10.2539
61.3	-910.95	-10.1318
61.4	-915.222	-10.2539
61.5	-916.748	-10.1318
61.6	-914.917	-10.3149
61.7	-914.612	-10.1929
61.8	-915.833	-10.3455
61.9	-917.358	-10.1624
62	-917.053	-10.2539
62.1	-914.917	-10.1318
62.2	-913.696	-10.2539
62.3	-914.307	-10.1318
62.4	-916.138	-10.2234
62.5	-917.664	-10.1929
62.6	-914.001	-10.2844
62.7	-910.339	-10.1929
62.8	-910.339	-10.2844
62.9	-914.001	-10.1013
63	-915.527	-10.2844
63.1	-914.917	-10.1318
63.2	-913.391	-10.1318
63.3	-914.001	-10.2844
63.4	-915.222	-10.1318
63.5	-913.696	-10.1624
63.6	-911.255	-10.2844
63.7	-912.781	-10.2539
63.8	-914.917	-10.1318
63.9	-915.833	-10.1624
64	-916.443	-10.2539
64.1	-915.222	-10.2234
64.2	-916.138	-10.1013
64.3	-917.358	-10.1929
64.4	-919.189	-10.3149
64.5	-919.8	-10.2234
64.6	-919.495	-10.1318
64.7	-919.495	-10.1624
64.8	-920.41	-10.1624
64.9	-921.326	-10.2539
65	-920.715	-10.1624
65.1	-919.495	-10.2539
65.2	-920.715	-10.1624
65.3	-921.631	-10.2844
65.4	-917.969	-10.1624
65.5	-914.612	-10.2539
65.6	-911.865	-10.1318
65.7	-914.001	-10.1929
65.8	-917.053	-10.1318
65.9	-917.664	-10.1318
66	-917.664	-10.2844
66.1	-915.833	-10.1624
66.2	-914.307	-10.3149
66.3	-916.138	-10.1013
66.4	-917.969	-10.2234
66.5	-917.053	-10.1929
66.6	-917.969	-10.1624
66.7	-918.274	-10.1929
66.8	-919.189	-10.1318
66.9	-919.495	-10.2844
67	-918.274	-10.1624
67.1	-917.664	-10.3149
67.2	-919.495	-10.1318
67.3	-920.105	-10.2234
67.4	-920.105	-10.1013
67.5	-919.189	-10.1624
67.6	-920.105	-10.2844
67.7	-919.189	-10.1624
67.8	-917.969	-10.2844
67.9	-917.969	-10.1929
68	-917.664	-10.2539
68.1	-918.884	-10.1624
68.2	-920.41	-10.2539
68.3	-920.715	-10.1013
68.4	-922.852	-10.2539
68.5	-921.326	-10.1624
68.6	-918.274	-10.2844
68.7	-916.138	-10.1624
68.8	-916.443	-10.2539
68.9	-920.105	-10.1624
69	-919.189	-10.1929
69.1	-918.579	-10.1318
69.2	-918.884	-10.1929
69.3	-921.326	-10.1624
69.4	-921.936	-10.1318
69.5	-919.189	-10.3149
69.6	-916.748	-10.1929
69.7	-917.969	-10.2844
69.8	-917.969	-10.2234
69.9	-917.053	-10.1318
70	-916.748	-10.2234
70.1	-917.053	-10.1929
70.2	-915.222	-15.1367
70.3	-923.462	-15.2283
70.4	-1085.21	-15.2588
70.5	-1360.47	-15.1978
70.6	-1443.18	-15.2893
70.7	-1436.46	-15.1367
70.8	-1432.19	-15.2283
70.9	-1431.88	-15.1062
71	-1431.88	-15.1978
71.1	-1433.72	-15.1978
71.2	-1434.63	-15.1672
71.3	-1437.68	-15.2893
71.4	-1438.6	-15.1672
71.5	-1436.16	-15.1978
71.6	-1432.19	-15.1672
71.7	-1430.36	-15.1367
71.8	-1431.88	-15.2283
71.9	-1434.94	-15.1672
72	-1435.55	-15.2588
72.1	-1434.02	-15.1978
72.2	-1431.58	-15.3198
72.3	-1432.19	-15.1672
72.4	-1430.97	-15.2588
72.5	-1429.44	-15.1062
72.6	-1430.97	-15.1367
72.7	-1431.58	-15.2283
72.8	-1432.19	-15.1367
72.9	-1431.58	-15.2893
73	-1429.75	-15.1367
73.1	-1429.75	-15.2893
73.2	-1430.05	-15.1062
73.3	-1428.22	-15.2588
73.4	-1426.7	-15.1062
73.5	-1427.92	-15.2588
73.6	-1430.36	-15.1672
73.7	-1429.44	-15.2893
73.8	-1426.7	-15.1672
73.9	-1426.7	-15.2588
74	-1428.22	-15.1367
74.1	-1429.14	-15.2283
74.2	-1427.92	-15.1062
74.3	-1427.31	-15.1978
74.4	-1433.72	-15.2283
74.5	-1435.24	-15.1672
74.6	-1432.8	-15.2588
74.7	-1434.63	-15.2283
74.8	-1431.27	-15.1062
74.9	-1430.66	-15.2283
75	-1436.16	-15.1672
75.1	-1438.29	-15.2283
75.2	-1437.99	-15.1978
75.3	-1437.68	-15.1367
75.4	-1438.9	-15.2588
75.5	-1440.73	-15.1367
75.6	-1438.9	-15.2588
75.7	-1437.07	-15.1062
75.8	-1434.94	-15.2283
75.9	-1436.16	-15.1672
76	-1433.72	-15.2283
76.1	-1432.19	-15.2588
76.2	-1434.63	-15.1672
76.3	-1436.46	-15.2588
76.4	-1439.51	-15.1367
76.5	-1437.99	-15.1672
76.6	-1434.94	-15.2588
76.7	-1434.63	-15.1367
76.8	-1434.94	-15.1672
76.9	-1434.33	-15.2588
77	-1434.63	-15.1978
77.1	-1430.97	-15.1062
77.2	-1434.63	-15.2588
77.3	-1439.21	-15.1978
77.4	-1433.72	-15.1672
77.5	-1434.33	-15.2893
77.6	-1438.6	-15.2283
77.7	-1435.85	-15.1672
77.8	-1436.46	-15.1367
77.9	-1436.16	-15.1978
78	-1433.72	-15.1367
78.1	-1435.85	-15.2588
78.2	-1436.16	-15.2283
78.3	-1432.5	-15.1672
78.4	-1434.94	-15.3198
78.5	-1436.77	-15.1367
78.6	-1434.94	-15.2588
78.7	-1430.66	-15.1062
78.8	-1428.53	-15.2588
78.9	-1427.92	-15.1367
79	-1427.92	-15.2588
79.1	-1430.97	-15.1672
79.2	-1430.97	-15.3198
79.3	-1434.02	-15.1367
79.4	-1431.88	-15.2588
79.5	-1428.53	-15.1062
79.6	-1430.05	-15.2283
79.7	-1428.53	-15.1062
79.8	-1428.22	-15.2893
79.9	-1430.36	-15.1672
80	-1427	-15.2893
80.1	-1421.81	-15.1367
80.2	-1421.51	-15.2588
80.3	-1422.12	-20.2026
80.4	-1497.5	-20.1416
80.5	-1763.92	-20.2332
80.6	-1912.54	-20.1416
80.7	-1914.67	-20.2026
80.8	-1909.79	-20.2942
80.9	-1914.06	-20.1721
81	-1922.3	-20.2332
81.1	-1924.44	-20.1111
81.2	-1922	-20.2942
81.3	-1919.56	-20.1721
81.4	-1924.13	-20.1721
81.5	-1927.8	-20.2637
81.6	-1928.1	-20.1416
81.7	-1925.35	-20.2637
81.8	-1927.8	-20.0806
81.9	-1932.37	-20.2637
82	-1931.46	-20.1111
82.1	-1929.63	-20.2942
82.2	-1930.54	-20.2637
82.3	-1926.57	-20.2026
82.4	-1922.61	-20.2026
82.5	-1920.47	-20.2026
82.6	-1921.08	-20.1416
82.7	-1918.95	-20.2942
82.8	-1915.59	-20.1416
82.9	-1915.89	-20.2637
83	-1915.28	-20.2026
83.1	-1911.01	-20.1111
83.2	-1920.78	-20.2332
83.3	-1922	-20.1111
83.4	-1911.62	-20.2026
83.5	-1914.06	-20.1721
83.6	-1917.72	-20.1416
83.7	-1912.23	-20.2637
83.8	-1914.06	-20.2026
83.9	-1917.72	-20.1416
84	-1919.25	-20.2332
84.1	-1921.69	-20.1111
84.2	-1920.47	-20.2637
84.3	-1922.3	-20.1416
84.4	-1921.69	-20.3247
84.5	-1921.69	-20.2026
84.6	-1920.78	-20.2026
84.7	-1918.95	-20.2026
84.8	-1922.3	-20.1416
84.9	-1925.96	-20.2026
85	-1929.32	-20.2637
85.1	-1928.71	-20.1721
85.2	-1922.3	-20.2637
85.3	-1920.17	-20.1416
85.4	-1919.25	-20.1416
85.5	-1919.56	-20.2332
85.6	-1918.33	-20.1721
85.7	-1918.64	-20.1416
85.8	-1917.42	-20.2332
85.9	-1920.78	-20.1416
86	-1926.57	-20.2637
86.1	-1925.96	-20.1416
86.2	-1922.3	-20.2942
86.3	-1926.27	-20.1111
86.4	-1930.24	-20.2332
86.5	-1925.66	-20.1721
86.6	-1918.33	-20.2637
86.7	-1917.42	-20.2332
86.8	-1918.03	-20.1721
86.9	-1917.11	-20.2332
87	-1919.25	-20.1111
87.1	-1922.3	-20.2332
87.2	-1921.39	-20.2637
87.3	-1923.52	-20.1416
