ATF	1.0
7	3     
"AcquisitionMode=Gap Free"
"Comment="
"YTop=10000,1000"
"YBottom=-10000,-1000"
"SweepStartTimesMS=0.000"
"SignalsExported=Im_Scaled,10_mv"
"Signals="	"Im_Scaled"	"10_mv"
"Time (s)"	"Trace #1 (pA)"	"Trace #1 (mV)"
0	567.932	19.6533
0.1	572.815	19.7144
0.2	572.205	19.7449
0.3	571.594	19.7449
0.4	566.711	19.6533
0.5	565.796	19.7144
0.6	566.406	19.7144
0.7	565.186	19.6838
0.8	566.406	19.6838
0.9	569.763	19.7144
1	570.984	19.7754
1.1	573.12	19.7754
1.2	578.918	19.6228
1.3	575.256	19.6838
1.4	573.425	19.7449
1.5	580.444	19.8059
1.6	579.529	19.7449
1.7	579.224	19.6838
1.8	577.698	19.5923
1.9	570.679	19.7449
2	564.575	19.8059
2.1	563.354	19.7144
2.2	570.374	19.7449
2.3	575.562	19.7449
2.4	570.984	19.6533
2.5	573.12	19.5923
2.6	574.646	19.5923
2.7	576.172	19.6533
2.8	579.529	19.6533
2.9	579.834	19.7144
3	577.698	19.7754
3.1	576.172	19.7754
3.2	573.12	19.7754
3.3	573.73	19.6533
3.4	576.782	19.6838
3.5	582.581	19.6838
3.6	588.684	19.6838
3.7	585.327	19.7144
3.8	580.444	19.8059
3.9	580.444	19.7754
4	585.327	19.7144
4.1	579.834	19.5618
4.2	580.75	19.6533
4.3	581.36	19.7754
4.4	576.782	19.7754
4.5	577.698	19.6838
4.6	581.97	19.7144
4.7	581.97	19.6533
4.8	574.951	19.7754
4.9	573.73	19.6838
5	575.867	19.6533
5.1	578.918	19.8364
5.2	578.918	19.6838
5.3	581.055	19.5923
5.4	586.243	19.7754
5.5	582.275	19.7754
5.6	586.243	19.7754
5.7	590.82	19.5923
5.8	585.632	19.7144
5.9	585.022	19.8059
6	585.632	19.7754
6.1	581.055	19.6533
6.2	583.801	19.6838
6.3	585.632	19.7754
6.4	582.581	19.7144
6.5	581.97	19.6838
6.6	584.717	19.8059
6.7	584.717	19.6838
6.8	583.801	19.6533
6.9	583.496	19.8059
7	585.938	19.7754
7.1	590.21	19.6838
7.2	585.327	19.7754
7.3	583.191	19.6228
7.4	585.327	19.6228
7.5	582.581	19.8059
7.6	575.256	19.7449
7.7	576.172	19.6228
7.8	580.75	19.8059
7.9	581.665	19.7144
8	583.801	19.6228
8.1	587.158	19.7754
8.2	589.905	19.7144
8.3	586.548	19.7449
8.4	585.327	19.7449
8.5	586.853	19.7449
8.6	584.717	19.6533
8.7	581.665	19.7144
8.8	579.529	19.7144
8.9	584.412	19.6533
9	591.431	19.7449
9.1	589.905	19.7449
9.2	589.905	19.5923
9.3	592.041	19.8059
9.4	589.6	19.7754
9.5	591.431	19.6228
9.6	586.548	19.6228
9.7	581.36	19.7754
9.8	581.36	19.7754
9.9	582.581	19.6228
10	580.139	19.7754
10.1	584.412	19.7449
10.2	588.989	19.6838
10.3	591.736	14.74
10.4	559.387	14.74
10.5	474.243	14.6484
10.6	434.875	14.74
10.7	431.213	14.74
10.8	431.213	14.679
10.9	435.181	14.6179
11	440.369	14.74
11.1	445.251	14.7095
11.2	442.81	14.6484
11.3	439.758	14.7095
11.4	440.979	14.7705
11.5	438.538	14.7705
11.6	439.758	14.7705
11.7	447.083	14.74
11.8	448.303	14.6484
11.9	445.251	14.6179
12	440.979	14.74
12.1	440.369	14.801
12.2	443.42	14.74
12.3	445.557	14.7705
12.4	443.726	14.7705
12.5	446.472	14.74
12.6	443.726	14.679
12.7	433.044	14.74
12.8	436.401	14.74
12.9	440.369	14.801
13	439.453	14.74
13.1	441.284	14.7705
13.2	446.167	14.7705
13.3	446.167	14.74
13.4	444.031	14.6179
13.5	442.505	14.6179
13.6	445.251	14.7095
13.7	444.946	14.7095
13.8	444.031	14.7705
13.9	447.693	14.74
14	449.829	14.74
14.1	447.998	14.74
14.2	445.557	14.679
14.3	449.219	14.6484
14.4	452.271	14.679
14.5	449.219	14.74
14.6	447.693	14.7705
14.7	452.576	14.74
14.8	451.05	14.6484
14.9	444.336	14.6179
15	445.251	14.6179
15.1	450.745	14.679
15.2	450.134	14.7095
15.3	446.777	14.7705
15.4	446.167	14.7095
15.5	444.031	14.74
15.6	439.758	14.6484
15.7	442.81	14.679
15.8	444.031	14.74
15.9	442.81	14.7705
16	443.726	14.7705
16.1	439.148	14.6179
16.2	439.758	14.7705
16.3	441.284	14.6179
16.4	442.81	14.7705
16.5	447.388	14.801
16.6	449.524	14.6484
16.7	441.895	14.6179
16.8	442.505	14.6484
16.9	444.641	14.7705
17	446.472	14.801
17.1	444.641	14.74
17.2	440.979	14.7705
17.3	437.927	14.7095
17.4	437.927	14.7705
17.5	440.369	14.74
17.6	439.758	14.7705
17.7	440.369	14.801
17.8	440.063	14.74
17.9	442.505	14.679
18	448.303	14.7095
18.1	447.998	14.679
18.2	441.895	14.679
18.3	442.505	14.5874
18.4	443.115	14.6179
18.5	440.063	14.6484
18.6	438.843	14.6484
18.7	440.979	14.6484
18.8	443.42	14.6484
18.9	445.557	14.6484
19	444.336	14.6179
19.1	442.2	14.74
19.2	441.284	14.74
19.3	444.031	14.801
19.4	441.895	14.6484
19.5	440.674	14.6179
19.6	441.284	14.6484
19.7	442.81	14.8315
19.8	447.388	14.7705
19.9	450.134	14.679
20	449.524	14.6484
20.1	446.472	14.6484
20.2	447.083	9.70459
20.3	441.895	9.79614
20.4	374.451	9.73511
20.5	310.669	9.79614
20.6	299.072	9.79614
20.7	295.715	9.73511
20.8	296.936	9.70459
20.9	300.293	9.70459
21	300.598	9.67407
21.1	298.462	9.73511
21.2	299.377	9.70459
21.3	299.988	9.79614
21.4	300.903	9.76563
21.5	302.124	9.64355
21.6	301.819	9.61304
21.7	300.293	9.67407
21.8	301.514	9.76563
21.9	303.955	9.76563
22	303.955	9.64355
22.1	300.293	9.73511
22.2	298.767	9.79614
22.3	299.377	9.73511
22.4	299.988	9.61304
22.5	303.04	9.61304
22.6	302.429	9.67407
22.7	302.124	9.73511
22.8	302.429	9.76563
22.9	303.65	9.76563
23	306.396	9.76563
23.1	308.228	9.61304
23.2	305.481	9.70459
23.3	300.598	9.76563
23.4	302.124	9.64355
23.5	305.176	9.73511
23.6	305.786	9.73511
23.7	306.396	9.76563
23.8	306.091	9.70459
23.9	306.702	9.64355
24	303.345	9.61304
24.1	302.429	9.70459
24.2	303.04	9.79614
24.3	300.903	9.82666
24.4	299.377	9.70459
24.5	300.598	9.70459
24.6	300.293	9.61304
24.7	302.734	9.67407
24.8	304.871	9.73511
24.9	303.65	9.79614
25	301.208	9.79614
25.1	301.208	9.76563
25.2	304.26	9.70459
25.3	305.481	9.70459
25.4	306.702	9.64355
25.5	304.26	9.70459
25.6	299.683	9.73511
25.7	299.072	9.82666
25.8	299.072	9.76563
25.9	302.124	9.61304
26	302.734	9.61304
26.1	301.514	9.82666
26.2	302.429	9.73511
26.3	303.955	9.61304
26.4	303.04	9.70459
26.5	302.124	9.79614
26.6	298.767	9.70459
26.7	300.598	9.64355
26.8	301.514	9.64355
26.9	298.767	9.79614
27	300.903	9.79614
27.1	303.955	9.67407
27.2	304.871	9.61304
27.3	304.26	9.64355
27.4	306.091	9.70459
27.5	306.091	9.61304
27.6	305.176	9.64355
27.7	306.396	9.67407
27.8	304.26	9.64355
27.9	301.208	9.61304
28	303.345	9.64355
28.1	309.143	9.73511
28.2	308.533	9.82666
28.3	306.091	9.76563
28.4	300.903	9.67407
28.5	299.072	9.64355
28.6	304.871	9.64355
28.7	305.786	9.76563
28.8	306.702	9.79614
28.9	306.702	9.73511
29	303.955	9.61304
29.1	306.396	9.73511
29.2	308.838	9.76563
29.3	304.871	9.67407
29.4	304.565	9.61304
29.5	308.533	9.79614
29.6	306.702	9.79614
29.7	307.007	9.76563
29.8	307.617	9.73511
29.9	306.702	9.70459
30	308.533	9.64355
30.1	308.228	9.70459
30.2	305.786	4.82178
30.3	301.819	4.79126
30.4	256.348	4.69971
30.5	183.411	4.66919
30.6	162.964	4.66919
30.7	164.185	4.69971
30.8	163.879	4.66919
30.9	162.659	4.66919
31	162.659	4.85229
31.1	163.574	4.82178
31.2	162.659	4.79126
31.3	162.354	4.69971
31.4	163.879	4.69971
31.5	165.1	4.66919
31.6	164.49	4.60815
31.7	165.1	4.69971
31.8	162.354	4.79126
31.9	159.912	4.82178
32	160.828	4.76074
32.1	163.269	4.73022
32.2	164.49	4.73022
32.3	164.49	4.66919
32.4	163.574	4.69971
32.5	162.659	4.79126
32.6	160.828	4.82178
32.7	160.522	4.82178
32.8	161.133	4.79126
32.9	161.133	4.79126
33	161.743	4.82178
33.1	164.185	4.76074
33.2	164.795	4.79126
33.3	165.71	4.76074
33.4	164.49	4.73022
33.5	163.574	4.60815
33.6	165.71	4.66919
33.7	166.931	4.69971
33.8	165.1	4.69971
33.9	164.795	4.73022
34	163.574	4.76074
34.1	162.964	4.85229
34.2	161.438	4.76074
34.3	162.659	4.82178
34.4	164.185	4.82178
34.5	163.574	4.82178
34.6	163.879	4.76074
34.7	162.659	4.79126
34.8	161.743	4.79126
34.9	160.828	4.76074
35	163.574	4.73022
35.1	164.795	4.82178
35.2	163.269	4.82178
35.3	163.269	4.76074
35.4	164.795	4.79126
35.5	165.1	4.66919
35.6	164.795	4.60815
35.7	166.016	4.76074
35.8	165.1	4.76074
35.9	163.574	4.82178
36	165.1	4.79126
36.1	166.016	4.82178
36.2	166.321	4.82178
36.3	168.152	4.76074
36.4	165.71	4.76074
36.5	165.1	4.82178
36.6	166.016	4.79126
36.7	166.321	4.76074
36.8	166.321	4.79126
36.9	167.847	4.73022
37	168.762	4.66919
37.1	166.016	4.69971
37.2	165.405	4.82178
37.3	165.71	4.82178
37.4	166.321	4.76074
37.5	165.71	4.76074
37.6	165.71	4.69971
37.7	165.1	4.66919
37.8	166.321	4.66919
37.9	166.321	4.76074
38	166.626	4.79126
38.1	166.931	4.76074
38.2	165.405	4.69971
38.3	165.71	4.69971
38.4	167.542	4.69971
38.5	168.457	4.69971
38.6	170.288	4.76074
38.7	169.067	4.76074
38.8	168.152	4.79126
38.9	168.457	4.73022
39	168.152	4.79126
39.1	166.931	4.82178
39.2	167.236	4.79126
39.3	168.457	4.79126
39.4	167.236	4.85229
39.5	166.626	4.85229
39.6	167.542	4.76074
39.7	165.1	4.73022
39.8	164.49	4.66919
39.9	166.321	4.63867
40	167.236	4.69971
40.1	167.236	4.76074
40.2	166.321	-0.244141
40.3	163.574	-0.244141
40.4	128.174	-0.213623
40.5	58.2886	-0.305176
40.6	33.2642	-0.396729
40.7	34.1797	-0.274658
40.8	33.5693	-0.244141
40.9	33.5693	-0.274658
41	34.1797	-0.244141
41.1	33.8745	-0.213623
41.2	34.1797	-0.213623
41.3	34.1797	-0.274658
41.4	33.8745	-0.274658
41.5	33.8745	-0.305176
41.6	33.5693	-0.366211
41.7	33.8745	-0.305176
41.8	33.5693	-0.274658
41.9	33.8745	-0.305176
42	33.2642	-0.213623
42.1	33.5693	-0.183105
42.2	33.8745	-0.335693
42.3	33.5693	-0.335693
42.4	33.5693	-0.305176
42.5	33.5693	-0.335693
42.6	33.2642	-0.305176
42.7	33.2642	-0.305176
42.8	33.5693	-0.274658
42.9	33.2642	-0.274658
43	33.2642	-0.244141
43.1	33.2642	-0.213623
43.2	33.5693	-0.183105
43.3	33.2642	-0.183105
43.4	32.959	-0.244141
43.5	32.959	-0.183105
43.6	33.5693	-0.183105
43.7	34.1797	-0.244141
43.8	34.1797	-0.305176
43.9	33.5693	-0.244141
44	33.5693	-0.183105
44.1	33.5693	-0.274658
44.2	33.8745	-0.244141
44.3	33.5693	-0.183105
44.4	33.5693	-0.213623
44.5	33.5693	-0.305176
44.6	33.8745	-0.305176
44.7	34.1797	-0.274658
44.8	33.8745	-0.366211
44.9	33.5693	-0.335693
45	33.5693	-0.305176
45.1	33.8745	-0.305176
45.2	33.8745	-0.305176
45.3	33.8745	-0.244141
45.4	33.5693	-0.274658
45.5	33.8745	-0.335693
45.6	33.8745	-0.366211
45.7	34.1797	-0.213623
45.8	33.5693	-0.244141
45.9	33.5693	-0.244141
46	33.8745	-0.244141
46.1	34.1797	-0.183105
46.2	33.8745	-0.183105
46.3	34.1797	-0.244141
46.4	33.8745	-0.274658
46.5	34.1797	-0.244141
46.6	33.8745	-0.213623
46.7	33.8745	-0.244141
46.8	33.2642	-0.183105
46.9	33.2642	-0.152588
47	33.5693	-0.213623
47.1	33.8745	-0.213623
47.2	33.8745	-0.183105
47.3	33.8745	-0.213623
47.4	34.4849	-0.305176
47.5	33.8745	-0.335693
47.6	33.5693	-0.335693
47.7	33.8745	-0.335693
47.8	33.5693	-0.244141
47.9	33.8745	-0.213623
48	33.8745	-0.152588
48.1	33.8745	-0.244141
48.2	33.8745	-0.213623
48.3	33.2642	-0.213623
48.4	33.2642	-0.335693
48.5	33.5693	-0.366211
48.6	33.5693	-0.274658
48.7	34.1797	-0.274658
48.8	33.8745	-0.244141
48.9	34.1797	-0.305176
49	33.8745	-0.274658
49.1	34.1797	-0.274658
49.2	33.8745	-0.366211
49.3	33.5693	-0.305176
49.4	33.5693	-0.366211
49.5	33.5693	-0.335693
49.6	33.5693	-0.274658
49.7	33.2642	-0.213623
49.8	32.959	-0.183105
49.9	33.8745	-0.244141
50	34.1797	-0.183105
50.1	33.8745	-5.15747
50.2	20.1416	-5.18799
50.3	-40.8936	-5.24902
50.4	-81.4819	-5.24902
50.5	-83.9233	-5.18799
50.6	-83.9233	-5.34058
50.7	-84.2285	-5.31006
50.8	-85.144	-5.27954
50.9	-84.8389	-5.21851
51	-83.9233	-5.18799
51.1	-84.2285	-5.21851
51.2	-84.2285	-5.12695
51.3	-84.2285	-5.15747
51.4	-83.6182	-5.24902
51.5	-83.6182	-5.21851
51.6	-84.8389	-5.31006
51.7	-85.144	-5.27954
51.8	-86.3647	-5.34058
51.9	-85.7544	-5.21851
52	-85.4492	-5.18799
52.1	-85.144	-5.21851
52.2	-85.7544	-5.18799
52.3	-86.0596	-5.15747
52.4	-85.144	-5.12695
52.5	-85.144	-5.18799
52.6	-84.5337	-5.12695
52.7	-84.2285	-5.21851
52.8	-84.5337	-5.24902
52.9	-84.8389	-5.31006
53	-84.5337	-5.18799
53.1	-83.6182	-5.15747
53.2	-84.5337	-5.21851
53.3	-85.4492	-5.09644
53.4	-85.7544	-5.12695
53.5	-83.9233	-5.18799
53.6	-83.313	-5.18799
53.7	-83.313	-5.15747
53.8	-83.313	-5.15747
53.9	-84.2285	-5.15747
54	-84.8389	-5.12695
54.1	-83.313	-5.12695
54.2	-82.3975	-5.18799
54.3	-83.0078	-5.18799
54.4	-84.2285	-5.24902
54.5	-84.5337	-5.31006
54.6	-83.6182	-5.18799
54.7	-82.7026	-5.12695
54.8	-82.3975	-5.21851
54.9	-82.7026	-5.34058
55	-83.0078	-5.34058
55.1	-83.9233	-5.27954
55.2	-83.6182	-5.21851
55.3	-82.7026	-5.21851
55.4	-82.3975	-5.15747
55.5	-82.3975	-5.12695
55.6	-83.0078	-5.18799
55.7	-82.7026	-5.18799
55.8	-82.0923	-5.18799
55.9	-82.7026	-5.24902
56	-83.0078	-5.31006
56.1	-82.0923	-5.24902
56.2	-82.0923	-5.24902
56.3	-82.7026	-5.24902
56.4	-82.7026	-5.31006
56.5	-83.6182	-5.21851
56.6	-84.5337	-5.24902
56.7	-83.9233	-5.24902
56.8	-82.3975	-5.34058
56.9	-82.7026	-5.31006
57	-83.0078	-5.31006
57.1	-84.2285	-5.37109
57.2	-83.9233	-5.18799
57.3	-84.2285	-5.15747
57.4	-84.5337	-5.18799
57.5	-84.8389	-5.18799
57.6	-85.4492	-5.15747
57.7	-84.2285	-5.12695
57.8	-84.2285	-5.24902
57.9	-84.2285	-5.21851
58	-83.313	-5.24902
58.1	-82.0923	-5.27954
58.2	-81.1768	-5.27954
58.3	-81.1768	-5.27954
58.4	-83.6182	-5.31006
58.5	-85.144	-5.31006
58.6	-85.144	-5.21851
58.7	-84.2285	-5.21851
58.8	-83.6182	-5.21851
58.9	-84.2285	-5.15747
59	-84.2285	-5.12695
59.1	-83.9233	-5.18799
59.2	-83.9233	-5.18799
59.3	-84.5337	-5.18799
59.4	-84.5337	-5.18799
59.5	-84.5337	-5.24902
59.6	-83.9233	-5.21851
59.7	-83.313	-5.27954
59.8	-83.9233	-10.2844
59.9	-86.3647	-10.1624
60	-120.239	-10.1013
60.1	-169.983	-10.1624
60.2	-181.58	-10.2234
60.3	-182.8	-10.1624
60.4	-185.547	-10.1013
60.5	-186.157	-10.1929
60.6	-184.021	-10.1318
60.7	-183.411	-10.1318
60.8	-184.326	-10.1318
60.9	-184.631	-10.1318
61	-182.8	-10.1318
61.1	-183.105	-10.1318
61.2	-185.242	-10.1929
61.3	-188.904	-10.1624
61.4	-186.462	-10.1929
61.5	-182.8	-10.1929
61.6	-181.274	-10.1929
61.7	-180.664	-10.2234
61.8	-183.105	-10.2539
61.9	-183.411	-10.1929
62	-184.326	-10.1013
62.1	-186.157	-10.1318
62.2	-186.157	-10.2539
62.3	-186.157	-10.1624
62.4	-186.157	-10.1624
62.5	-186.462	-10.2539
62.6	-187.683	-10.1929
62.7	-184.021	-10.2844
62.8	-183.105	-10.3149
62.9	-185.547	-10.2844
63	-185.547	-10.1624
63.1	-184.326	-10.1624
63.2	-186.157	-10.1624
63.3	-185.242	-10.1318
63.4	-184.021	-10.2539
63.5	-184.326	-10.3455
63.6	-184.326	-10.2844
63.7	-187.073	-10.2844
63.8	-184.631	-10.3149
63.9	-184.937	-10.2844
64	-185.547	-10.2234
64.1	-185.852	-10.2234
64.2	-188.599	-10.1624
64.3	-188.599	-10.1318
64.4	-185.242	-10.1929
64.5	-184.631	-10.2844
64.6	-185.852	-10.2539
64.7	-188.904	-10.2844
64.8	-190.125	-10.3149
64.9	-188.904	-10.2539
65	-187.683	-10.1318
65.1	-187.988	-10.1929
65.2	-187.073	-10.1929
65.3	-186.768	-10.1318
65.4	-189.514	-10.1318
65.5	-190.125	-10.1624
65.6	-187.378	-10.1318
65.7	-187.378	-10.1624
65.8	-187.073	-10.1624
65.9	-188.293	-10.1318
66	-189.514	-10.1929
66.1	-190.125	-10.3455
66.2	-188.599	-10.1929
66.3	-184.937	-10.1624
66.4	-184.326	-10.1929
66.5	-184.021	-10.2844
66.6	-182.495	-10.1929
66.7	-184.937	-10.2234
66.8	-186.462	-10.2539
66.9	-184.326	-10.1318
67	-180.664	-10.1318
67.1	-181.58	-10.2234
67.2	-184.021	-10.2539
67.3	-183.105	-10.1929
67.4	-183.411	-10.1624
67.5	-185.242	-10.1013
67.6	-187.073	-10.1624
67.7	-189.209	-10.1929
67.8	-191.04	-10.1318
67.9	-189.514	-10.1318
68	-185.242	-10.1624
68.1	-184.937	-10.1318
68.2	-185.852	-10.1318
68.3	-187.378	-10.1624
68.4	-185.852	-10.1624
68.5	-182.8	-10.1318
68.6	-185.547	-10.1318
68.7	-187.683	-10.1929
68.8	-183.411	-10.1318
68.9	-180.054	-10.1318
69	-180.054	-10.1624
69.1	-182.495	-10.1318
69.2	-183.411	-10.1013
69.3	-186.768	-10.2234
69.4	-190.735	-10.1318
69.5	-186.768	-10.1624
69.6	-186.462	-10.1929
69.7	-191.345	-10.1624
69.8	-190.43	-10.1624
69.9	-187.683	-10.2234
70	-187.988	-10.3149
70.1	-187.378	-10.2844
70.2	-187.073	-10.3149
70.3	-185.547	-15.3198
70.4	-183.411	-15.2893
70.5	-206.604	-15.2588
70.6	-254.822	-15.2893
70.7	-270.081	-15.2588
70.8	-273.438	-15.2893
70.9	-273.743	-15.2588
71	-269.47	-15.1367
71.1	-266.724	-15.1367
71.2	-265.503	-15.1978
71.3	-267.944	-15.1367
71.4	-274.048	-15.1062
71.5	-272.522	-15.1672
71.6	-272.217	-15.1672
71.7	-274.353	-15.1978
71.8	-274.658	-15.2893
71.9	-274.658	-15.2893
72	-273.132	-15.2588
72.1	-272.827	-15.2283
72.2	-273.743	-15.1978
72.3	-272.217	-15.1978
72.4	-271.606	-15.2283
72.5	-274.048	-15.1367
72.6	-278.015	-15.1062
72.7	-276.489	-15.1978
72.8	-271.606	-15.2588
72.9	-267.029	-15.2588
73	-266.418	-15.1978
73.1	-268.86	-15.1062
73.2	-269.165	-15.1367
73.3	-273.743	-15.1978
73.4	-273.743	-15.2283
73.5	-269.47	-15.2893
73.6	-267.944	-15.2283
73.7	-267.639	-15.2283
73.8	-274.963	-15.1062
73.9	-281.067	-15.1367
74	-278.32	-15.2588
74.1	-274.963	-15.2283
74.2	-272.827	-15.1672
74.3	-271.912	-15.1672
74.4	-270.996	-15.1978
74.5	-273.743	-15.2283
74.6	-273.132	-15.2893
74.7	-274.353	-15.2588
74.8	-274.963	-15.2588
74.9	-271.301	-15.2588
75	-271.301	-15.1367
75.1	-274.353	-15.1367
75.2	-275.879	-15.1672
75.3	-273.743	-15.1367
75.4	-271.912	-15.2588
75.5	-271.606	-15.2893
75.6	-270.081	-15.2283
75.7	-271.606	-15.0757
75.8	-265.503	-15.2283
75.9	-264.282	-15.2893
76	-271.912	-15.1978
76.1	-271.301	-15.1672
76.2	-268.25	-15.1978
76.3	-264.282	-15.1978
76.4	-265.198	-15.2893
76.5	-272.827	-15.2893
76.6	-276.489	-15.2588
76.7	-273.743	-15.3198
76.8	-271.301	-15.2893
76.9	-272.522	-15.1978
77	-272.827	-15.1367
77.1	-271.912	-15.2283
77.2	-267.944	-15.2588
77.3	-269.775	-15.1978
77.4	-271.301	-15.1978
77.5	-271.301	-15.1672
77.6	-275.574	-15.0757
77.7	-277.405	-15.1672
77.8	-270.996	-15.1978
77.9	-270.996	-15.1367
78	-274.353	-15.1672
78.1	-270.996	-15.1978
78.2	-267.944	-15.1062
78.3	-271.912	-15.1367
78.4	-275.269	-15.1367
78.5	-277.405	-15.1978
78.6	-275.269	-15.1367
78.7	-271.912	-15.1978
78.8	-270.386	-15.2588
78.9	-268.555	-15.1062
79	-274.353	-15.1062
79.1	-276.184	-15.1672
79.2	-271.301	-15.1062
79.3	-267.944	-15.1672
79.4	-268.555	-15.2893
79.5	-271.301	-15.2893
79.6	-278.625	-15.2283
79.7	-280.457	-15.2283
79.8	-275.269	-15.2283
79.9	-274.658	-15.1062
80	-273.743	-15.1062
80.1	-270.386	-15.1367
80.2	-269.775	-20.2637
80.3	-275.269	-20.2637
80.4	-304.26	-20.2332
80.5	-338.44	-20.2026
80.6	-337.83	-20.1721
80.7	-339.966	-20.1416
80.8	-344.238	-20.1416
80.9	-338.135	-20.0806
81	-339.05	-20.1416
81.1	-342.102	-20.2637
81.2	-335.388	-20.2332
81.3	-334.778	-20.2332
81.4	-336.914	-20.1721
81.5	-340.271	-20.1416
81.6	-343.323	-20.2332
81.7	-338.44	-20.2942
81.8	-334.473	-20.2637
81.9	-341.492	-20.2026
82	-340.881	-20.1416
82.1	-338.135	-20.1111
82.2	-342.712	-20.2026
82.3	-345.154	-20.2637
82.4	-339.966	-20.2332
82.5	-337.219	-20.2026
82.6	-342.407	-20.1721
82.7	-342.102	-20.2026
82.8	-335.693	-20.1416
82.9	-333.862	-20.1416
83	-335.388	-20.2026
83.1	-333.862	-20.2026
83.2	-337.219	-20.1721
83.3	-347.9	-20.1416
83.4	-348.816	-20.2026
83.5	-341.492	-20.1111
83.6	-341.492	-20.1721
83.7	-338.135	-20.2332
83.8	-338.135	-20.2332
83.9	-336.914	-20.2637
84	-342.407	-20.2942
84.1	-346.985	-20.2332
84.2	-340.576	-20.2026
84.3	-336.914	-20.2332
84.4	-337.83	-20.2637
84.5	-335.693	-20.1416
84.6	-330.2	-20.2026
84.7	-331.116	-20.1721
84.8	-334.473	-20.1721
84.9	-337.83	-20.1721
85	-339.966	-20.1721
85.1	-338.44	-20.1416
85.2	-339.05	-20.1721
85.3	-340.271	-20.3247
85.4	-339.661	-20.2637
85.5	-338.745	-20.1416
85.6	-340.271	-20.1416
85.7	-331.421	-20.1416
85.8	-328.369	-20.1416
85.9	-337.219	-20.1721
86	-344.238	-20.0806
86.1	-342.102	-20.1721
86.2	-338.44	-20.2026
86.3	-339.661	-20.1416
86.4	-336.609	-20.1111
86.5	-337.83	-20.1721
86.6	-341.492	-20.1111
86.7	-341.797	-20.1111
86.8	-334.167	-20.1721
86.9	-331.116	-20.0806
87	-330.2	-20.1416
87.1	-332.947	-20.2332
87.2	-340.271	-20.1721
87.3	-334.473	-20.2026
87.4	-334.167	-20.2637
87.5	-336.914	-20.2942
