ATF	1.0
7	3     
"AcquisitionMode=Gap Free"
"Comment="
"YTop=10000,1000"
"YBottom=-10000,-1000"
"SweepStartTimesMS=0.000"
"SignalsExported=Im_Scaled,10_mv"
"Signals="	"Im_Scaled"	"10_mv"
"Time (s)"	"Trace #1 (pA)"	"Trace #1 (mV)"
0	2017.82	19.6838
0.1	2013.85	19.7449
0.2	2012.33	19.6228
0.3	2006.53	19.7754
0.4	2001.95	19.6838
0.5	2001.65	19.7449
0.6	1997.68	19.7144
0.7	1992.19	19.7449
0.8	1988.83	19.6533
0.9	1980.29	19.8059
1	1984.25	19.6228
1.1	1989.75	19.8059
1.2	1997.99	19.7754
1.3	1992.8	19.5923
1.4	1979.37	19.7144
1.5	1979.37	19.8059
1.6	1977.84	19.5923
1.7	1975.71	19.8059
1.8	1979.68	19.7754
1.9	1972.05	19.5923
2	1960.45	19.8059
2.1	1956.79	19.6838
2.2	1955.87	19.6838
2.3	1954.96	19.7449
2.4	1955.57	19.6228
2.5	1960.14	19.7449
2.6	1964.42	19.7449
2.7	1964.72	19.7144
2.8	1965.03	19.6838
2.9	1966.25	19.7449
3	1963.5	19.6838
3.1	1959.23	19.7449
3.2	1959.53	19.6533
3.3	1958.01	19.7449
3.4	1962.89	19.6533
3.5	1971.13	19.7754
3.6	1974.79	19.6533
3.7	1964.42	19.8059
3.8	1958.62	19.6533
3.9	1957.4	19.7754
4	1954.96	19.6838
4.1	1954.04	19.7754
4.2	1949.16	19.7144
4.3	1945.8	19.7144
4.4	1943.05	19.7144
4.5	1939.39	19.7144
4.6	1936.04	19.7754
4.7	1939.7	19.5923
4.8	1945.5	19.7754
4.9	1948.55	19.7144
5	1946.41	19.7144
5.1	1953.13	19.7754
5.2	1951.29	19.7449
5.3	1947.33	19.6533
5.4	1942.44	19.8059
5.5	1934.51	19.6838
5.6	1938.78	19.7144
5.7	1939.09	19.7449
5.8	1933.29	19.5923
5.9	1931.46	19.7754
6	1936.04	19.6533
6.1	1945.5	19.7449
6.2	1955.87	19.6838
6.3	1951.9	19.6838
6.4	1936.65	19.7754
6.5	1930.85	19.6228
6.6	1929.63	19.7449
6.7	1916.2	19.6838
6.8	1904.6	19.7449
6.9	1914.67	19.6838
7	1922.91	19.7449
7.1	1915.89	19.7449
7.2	1907.65	19.6228
7.3	1907.65	19.7449
7.4	1918.03	19.7754
7.5	1924.44	19.6533
7.6	1930.24	19.6533
7.7	1933.59	19.7449
7.8	1932.07	19.7754
7.9	1925.66	19.6228
8	1912.54	19.7754
8.1	1894.23	19.5923
8.2	1879.88	19.7754
8.3	1878.36	19.6838
8.4	1883.54	19.7144
8.5	1880.49	19.7144
8.6	1884.46	19.6838
8.7	1895.75	19.8364
8.8	1894.53	19.6228
8.9	1889.65	19.7449
9	1899.72	19.7449
9.1	1905.21	19.6533
9.2	1903.99	19.7754
9.3	1915.28	19.6228
9.4	1916.2	19.7449
9.5	1910.1	19.7449
9.6	1918.33	19.7144
9.7	1930.24	19.7449
9.8	1924.44	19.6228
9.9	1918.33	19.7449
10	1918.95	19.7449
10.1	1918.03	19.6228
10.2	1919.86	14.801
10.3	1897.58	14.5874
10.4	1697.39	14.801
10.5	1512.45	14.679
10.6	1501.77	14.679
10.7	1521.91	14.801
10.8	1534.12	14.679
10.9	1537.48	14.7705
11	1536.25	14.5874
11.1	1543.27	14.7705
11.2	1549.38	14.6484
11.3	1554.26	14.7705
11.4	1561.89	14.6484
11.5	1567.69	14.7095
11.6	1568.91	14.74
11.7	1574.71	14.74
11.8	1576.54	14.7095
11.9	1568.91	14.74
12	1561.89	14.7095
12.1	1566.47	14.7095
12.2	1577.45	14.7705
12.3	1578.06	14.6484
12.4	1576.54	14.7705
12.5	1577.15	14.6179
12.6	1568.6	14.801
12.7	1565.86	14.7095
12.8	1568.6	14.679
12.9	1565.55	14.801
13	1565.25	14.679
13.1	1564.33	14.6484
13.2	1558.53	14.74
13.3	1554.57	14.7095
13.4	1560.06	14.7095
13.5	1563.42	14.7705
13.6	1566.16	14.7095
13.7	1567.08	14.74
13.8	1563.72	14.7095
13.9	1561.58	14.74
14	1559.75	14.74
14.1	1555.79	14.6484
14.2	1545.72	14.74
14.3	1545.1	14.6484
14.4	1549.38	14.74
14.5	1546.02	14.74
14.6	1541.14	14.74
14.7	1538.7	14.74
14.8	1535.03	14.7095
14.9	1536.56	14.6179
15	1538.39	14.801
15.1	1537.17	14.7095
15.2	1541.75	14.679
15.3	1549.38	14.801
15.4	1558.53	14.6179
15.5	1562.19	14.801
15.6	1558.23	14.6179
15.7	1557.92	14.8315
15.8	1562.5	14.6484
15.9	1564.64	14.74
16	1561.58	14.679
16.1	1559.75	14.74
16.2	1563.72	14.679
16.3	1566.47	14.8315
16.4	1572.27	14.6484
16.5	1571.96	14.801
16.6	1565.25	14.7095
16.7	1564.03	14.74
16.8	1571.04	14.7095
16.9	1575.93	14.7705
17	1573.79	14.7705
17.1	1575.62	14.679
17.2	1575.32	14.7095
17.3	1571.35	14.74
17.4	1564.03	14.679
17.5	1568.91	14.801
17.6	1564.94	14.6484
17.7	1557.01	14.7095
17.8	1564.33	14.6179
17.9	1568.91	14.7095
18	1571.66	14.74
18.1	1577.45	14.8315
18.2	1581.73	14.74
18.3	1580.51	14.74
18.4	1578.06	14.6484
18.5	1574.4	14.6484
18.6	1573.79	14.801
18.7	1577.15	14.801
18.8	1574.1	14.74
18.9	1574.71	14.6484
19	1579.9	14.679
19.1	1578.67	14.801
19.2	1571.04	14.5874
19.3	1564.33	14.74
19.4	1565.25	14.801
19.5	1575.01	14.5569
19.6	1582.34	14.7705
19.7	1589.05	14.7095
19.8	1591.19	14.679
19.9	1594.54	14.7705
20	1597.9	14.6179
20.1	1597.29	14.7095
20.2	1590.88	14.801
20.3	1585.39	9.64355
20.4	1523.13	9.76563
20.5	1279.6	9.70459
20.6	1127.62	9.67407
20.7	1127.62	9.79614
20.8	1134.34	9.67407
20.9	1134.34	9.76563
21	1140.75	9.70459
21.1	1146.55	9.73511
21.2	1148.99	9.76563
21.3	1149.9	9.73511
21.4	1151.43	9.79614
21.5	1150.51	9.64355
21.6	1149.6	9.70459
21.7	1153.56	9.67407
21.8	1158.14	9.76563
21.9	1162.41	9.64355
22	1166.99	9.79614
22.1	1165.16	9.64355
22.2	1156.62	9.73511
22.3	1155.4	9.70459
22.4	1162.11	9.61304
22.5	1161.19	9.79614
22.6	1154.79	9.70459
22.7	1150.21	9.76563
22.8	1150.82	9.79614
22.9	1156.92	9.61304
23	1161.19	9.79614
23.1	1163.94	9.58252
23.2	1167.91	9.76563
23.3	1172.49	9.70459
23.4	1171.88	9.70459
23.5	1170.65	9.67407
23.6	1169.13	9.76563
23.7	1171.26	9.64355
23.8	1172.18	9.79614
23.9	1173.71	9.61304
24	1181.95	9.76563
24.1	1189.27	9.73511
24.2	1190.8	9.70459
24.3	1190.19	9.70459
24.4	1188.66	9.67407
24.5	1187.44	9.76563
24.6	1190.8	9.70459
24.7	1195.07	9.73511
24.8	1195.07	9.79614
24.9	1195.37	9.61304
25	1191.1	9.79614
25.1	1189.88	9.70459
25.2	1186.52	9.73511
25.3	1185.3	9.76563
25.4	1186.52	9.64355
25.5	1185.91	9.76563
25.6	1185	9.82666
25.7	1191.1	9.58252
25.8	1195.37	9.79614
25.9	1193.85	9.76563
26	1193.24	9.61304
26.1	1194.46	9.76563
26.2	1194.76	9.76563
26.3	1194.15	9.67407
26.4	1188.35	9.73511
26.5	1182.86	9.73511
26.6	1185	9.67407
26.7	1188.66	9.61304
26.8	1190.49	9.79614
26.9	1192.02	9.73511
27	1191.41	9.64355
27.1	1191.71	9.79614
27.2	1191.1	9.73511
27.3	1185.91	9.64355
27.4	1184.08	9.79614
27.5	1185.3	9.76563
27.6	1186.83	9.64355
27.7	1188.66	9.67407
27.8	1192.63	9.79614
27.9	1191.1	9.64355
28	1187.44	9.73511
28.1	1186.22	9.82666
28.2	1185.61	9.61304
28.3	1186.52	9.76563
28.4	1191.71	9.70459
28.5	1192.63	9.64355
28.6	1191.1	9.82666
28.7	1192.32	9.64355
28.8	1192.02	9.76563
28.9	1192.63	9.73511
29	1195.37	9.67407
29.1	1196.59	9.79614
29.2	1192.93	9.67407
29.3	1192.93	9.70459
29.4	1194.76	9.79614
29.5	1192.93	9.73511
29.6	1190.19	9.73511
29.7	1190.8	9.76563
29.8	1194.76	9.64355
29.9	1191.41	9.73511
30	1180.42	9.70459
30.1	1176.76	9.64355
30.2	1180.42	4.79126
30.3	1142.88	4.79126
30.4	896.606	4.66919
30.5	688.477	4.79126
30.6	669.861	4.73022
30.7	674.438	4.63867
30.8	673.523	4.85229
30.9	674.744	4.69971
31	675.659	4.73022
31.1	677.49	4.82178
31.2	678.101	4.79126
31.3	679.016	4.76074
31.4	678.711	4.73022
31.5	679.321	4.79126
31.6	679.016	4.73022
31.7	679.321	4.66919
31.8	679.016	4.82178
31.9	679.321	4.76074
32	677.185	4.66919
32.1	675.354	4.69971
32.2	675.659	4.73022
32.3	676.575	4.79126
32.4	678.101	4.79126
32.5	679.321	4.76074
32.6	677.49	4.69971
32.7	678.406	4.63867
32.8	679.932	4.69971
32.9	682.068	4.69971
33	682.678	4.79126
33.1	681.763	4.82178
33.2	681.763	4.82178
33.3	680.847	4.79126
33.4	680.542	4.63867
33.5	679.321	4.69971
33.6	678.711	4.76074
33.7	680.542	4.82178
33.8	679.626	4.73022
33.9	679.932	4.60815
34	680.237	4.76074
34.1	678.101	4.76074
34.2	676.575	4.66919
34.3	678.101	4.69971
34.4	680.237	4.76074
34.5	679.932	4.79126
34.6	680.237	4.60815
34.7	681.458	4.79126
34.8	682.678	4.79126
34.9	682.068	4.66919
35	683.289	4.69971
35.1	683.899	4.76074
35.2	683.289	4.82178
35.3	682.678	4.73022
35.4	681.458	4.69971
35.5	680.542	4.82178
35.6	682.068	4.82178
35.7	683.594	4.69971
35.8	684.814	4.63867
35.9	684.204	4.82178
36	684.204	4.73022
36.1	684.509	4.73022
36.2	685.425	4.82178
36.3	686.34	4.73022
36.4	686.951	4.66919
36.5	687.561	4.76074
36.6	686.035	4.82178
36.7	685.425	4.79126
36.8	684.509	4.63867
36.9	685.425	4.79126
37	687.256	4.76074
37.1	686.646	4.79126
37.2	685.425	4.69971
37.3	686.646	4.69971
37.4	686.951	4.76074
37.5	685.425	4.79126
37.6	685.12	4.79126
37.7	684.814	4.73022
37.8	684.509	4.69971
37.9	685.425	4.79126
38	686.34	4.79126
38.1	688.171	4.69971
38.2	688.782	4.76074
38.3	688.477	4.73022
38.4	689.087	4.60815
38.5	688.477	4.82178
38.6	686.646	4.82178
38.7	687.866	4.69971
38.8	690.002	4.66919
38.9	690.002	4.73022
39	688.782	4.82178
39.1	690.002	4.66919
39.2	690.002	4.76074
39.3	690.002	4.82178
39.4	689.087	4.66919
39.5	686.646	4.76074
39.6	686.951	4.76074
39.7	688.782	4.73022
39.8	690.918	4.73022
39.9	693.054	4.79126
40	693.054	4.69971
40.1	691.833	4.79126
40.2	691.223	-0.335693
40.3	686.951	-0.244141
40.4	546.57	-0.305176
40.5	242.92	-0.274658
40.6	130.005	-0.183105
40.7	133.057	-0.305176
40.8	130.615	-0.244141
40.9	130.31	-0.305176
41	131.226	-0.213623
41.1	131.226	-0.305176
41.2	131.836	-0.183105
41.3	131.531	-0.244141
41.4	131.226	-0.305176
41.5	131.226	-0.183105
41.6	131.836	-0.305176
41.7	132.141	-0.274658
41.8	132.141	-0.274658
41.9	132.446	-0.183105
42	132.141	-0.274658
42.1	131.836	-0.244141
42.2	132.141	-0.274658
42.3	132.141	-0.305176
42.4	132.751	-0.244141
42.5	132.751	-0.274658
42.6	132.446	-0.244141
42.7	132.446	-0.305176
42.8	132.446	-0.213623
42.9	132.141	-0.274658
43	131.531	-0.213623
43.1	132.446	-0.213623
43.2	132.446	-0.305176
43.3	132.141	-0.213623
43.4	132.446	-0.305176
43.5	132.141	-0.183105
43.6	132.446	-0.305176
43.7	132.141	-0.274658
43.8	132.446	-0.213623
43.9	132.751	-0.305176
44	132.141	-0.183105
44.1	132.446	-0.244141
44.2	132.141	-0.274658
44.3	132.446	-0.183105
44.4	132.751	-0.305176
44.5	133.057	-0.274658
44.6	133.057	-0.244141
44.7	132.446	-0.274658
44.8	132.446	-0.213623
44.9	132.446	-0.244141
45	132.751	-0.244141
45.1	132.446	-0.274658
45.2	132.446	-0.274658
45.3	132.751	-0.244141
45.4	133.667	-0.244141
45.5	133.362	-0.274658
45.6	132.446	-0.244141
45.7	133.057	-0.274658
45.8	133.362	-0.305176
45.9	133.057	-0.244141
46	132.751	-0.274658
46.1	132.446	-0.244141
46.2	133.667	-0.244141
46.3	133.667	-0.274658
46.4	133.362	-0.213623
46.5	133.362	-0.305176
46.6	132.751	-0.244141
46.7	132.751	-0.213623
46.8	132.446	-0.244141
46.9	133.057	-0.244141
47	132.751	-0.274658
47.1	133.362	-0.183105
47.2	133.057	-0.366211
47.3	132.751	-0.213623
47.4	133.057	-0.274658
47.5	133.057	-0.305176
47.6	133.057	-0.183105
47.7	133.362	-0.335693
47.8	133.362	-0.213623
47.9	133.057	-0.366211
48	132.751	-0.213623
48.1	132.751	-0.274658
48.2	132.141	-0.244141
48.3	132.141	-0.274658
48.4	131.836	-0.244141
48.5	132.446	-0.305176
48.6	132.141	-0.213623
48.7	132.446	-0.244141
48.8	132.141	-0.305176
48.9	132.446	-0.183105
49	132.446	-0.396729
49.1	131.836	-0.183105
49.2	131.836	-0.335693
49.3	132.446	-0.244141
49.4	132.141	-0.183105
49.5	132.446	-0.244141
49.6	132.751	-0.305176
49.7	132.446	-0.183105
49.8	132.141	-0.335693
49.9	132.751	-0.213623
50	132.446	-0.213623
50.1	132.446	-0.274658
50.2	132.446	-0.183105
50.3	132.141	-5.31006
50.4	83.9233	-5.18799
50.5	-188.904	-5.21851
50.6	-407.715	-5.31006
50.7	-430.298	-5.15747
50.8	-428.467	-5.27954
50.9	-429.688	-5.24902
51	-430.298	-5.12695
51.1	-430.298	-5.18799
51.2	-430.298	-5.24902
51.3	-430.908	-5.31006
51.4	-430.908	-5.18799
51.5	-431.824	-5.18799
51.6	-431.824	-5.34058
51.7	-432.129	-5.18799
51.8	-432.434	-5.24902
51.9	-432.129	-5.15747
52	-432.739	-5.31006
52.1	-433.35	-5.15747
52.2	-432.739	-5.27954
52.3	-431.213	-5.21851
52.4	-430.908	-5.27954
52.5	-432.129	-5.12695
52.6	-433.35	-5.27954
52.7	-432.434	-5.21851
52.8	-433.044	-5.24902
52.9	-433.96	-5.21851
53	-433.96	-5.15747
53.1	-433.35	-5.18799
53.2	-432.434	-5.24902
53.3	-432.129	-5.15747
53.4	-431.213	-5.24902
53.5	-432.129	-5.15747
53.6	-432.434	-5.31006
53.7	-432.129	-5.21851
53.8	-433.35	-5.21851
53.9	-433.35	-5.27954
54	-433.044	-5.18799
54.1	-433.96	-5.31006
54.2	-434.265	-5.18799
54.3	-433.044	-5.31006
54.4	-432.739	-5.12695
54.5	-433.044	-5.34058
54.6	-433.96	-5.15747
54.7	-433.044	-5.24902
54.8	-433.044	-5.18799
54.9	-433.96	-5.18799
55	-433.044	-5.31006
55.1	-433.655	-5.12695
55.2	-435.181	-5.27954
55.3	-435.181	-5.18799
55.4	-433.96	-5.21851
55.5	-433.044	-5.31006
55.6	-433.35	-5.24902
55.7	-434.265	-5.21851
55.8	-433.655	-5.21851
55.9	-433.655	-5.27954
56	-433.96	-5.12695
56.1	-434.57	-5.24902
56.2	-433.655	-5.31006
56.3	-433.96	-5.12695
56.4	-435.181	-5.21851
56.5	-434.875	-5.31006
56.6	-435.486	-5.09644
56.7	-434.265	-5.37109
56.8	-433.96	-5.15747
56.9	-434.265	-5.24902
57	-435.791	-5.21851
57.1	-435.181	-5.15747
57.2	-435.181	-5.21851
57.3	-434.265	-5.27954
57.4	-434.265	-5.12695
57.5	-434.265	-5.34058
57.6	-436.096	-5.12695
57.7	-436.096	-5.27954
57.8	-435.486	-5.18799
57.9	-435.791	-5.18799
58	-435.791	-5.24902
58.1	-435.791	-5.18799
58.2	-435.486	-5.24902
58.3	-434.57	-5.18799
58.4	-434.875	-5.21851
58.5	-436.401	-5.15747
58.6	-437.012	-5.24902
58.7	-436.096	-5.18799
58.8	-437.012	-5.18799
58.9	-437.012	-5.18799
59	-436.401	-5.27954
59.1	-434.875	-5.21851
59.2	-435.791	-5.27954
59.3	-436.401	-5.15747
59.4	-435.181	-5.34058
59.5	-436.096	-5.18799
59.6	-437.317	-5.18799
59.7	-436.707	-5.31006
59.8	-436.096	-5.18799
59.9	-435.181	-5.27954
60	-435.181	-5.18799
60.1	-435.791	-5.27954
60.2	-436.096	-10.1929
60.3	-497.131	-10.1318
60.4	-783.691	-10.2539
60.5	-984.497	-10.1929
60.6	-997.009	-10.1624
60.7	-994.263	-10.2234
60.8	-996.094	-10.1624
60.9	-994.263	-10.2234
61	-994.263	-10.1929
61.1	-995.483	-10.2539
61.2	-999.146	-10.1624
61.3	-1000.67	-10.1929
61.4	-1001.28	-10.2234
61.5	-999.756	-10.1013
61.6	-996.704	-10.2539
61.7	-996.704	-10.2234
61.8	-997.009	-10.1318
61.9	-995.483	-10.1624
62	-997.62	-10.3149
62.1	-999.146	-10.1624
62.2	-997.314	-10.1624
62.3	-993.958	-10.1929
62.4	-994.873	-10.1929
62.5	-997.009	-10.1624
62.6	-996.094	-10.1624
62.7	-993.347	-10.2539
62.8	-989.685	-10.1624
62.9	-988.464	-10.1318
63	-992.432	-10.2539
63.1	-994.263	-10.2234
63.2	-992.737	-10.1624
63.3	-991.211	-10.2234
63.4	-991.516	-10.1929
63.5	-991.516	-10.1318
63.6	-989.99	-10.2539
63.7	-990.295	-10.1929
63.8	-991.821	-10.1318
63.9	-991.821	-10.2234
64	-992.432	-10.2844
64.1	-993.652	-10.1624
64.2	-993.347	-10.1318
64.3	-993.958	-10.1624
64.4	-993.652	-10.1929
64.5	-992.432	-10.2844
64.6	-993.347	-10.1929
64.7	-994.263	-10.1318
64.8	-992.432	-10.2539
64.9	-989.38	-10.1624
65	-989.075	-10.1624
65.1	-992.126	-10.2234
65.2	-996.704	-10.1929
65.3	-997.314	-10.1013
65.4	-997.925	-10.1929
65.5	-998.84	-10.3149
65.6	-998.535	-10.2539
65.7	-1000.67	-10.1624
65.8	-1000.67	-10.1624
65.9	-998.84	-10.2539
66	-999.146	-10.2539
66.1	-1000.06	-10.1624
66.2	-999.756	-10.1624
66.3	-999.146	-10.2844
66.4	-997.925	-10.1624
66.5	-997.314	-10.1624
66.6	-995.483	-10.2539
66.7	-993.347	-10.1318
66.8	-990.906	-10.1624
66.9	-991.516	-10.1624
67	-992.737	-10.1624
67.1	-993.958	-10.2844
67.2	-996.399	-10.2234
67.3	-996.094	-10.1624
67.4	-994.873	-10.2539
67.5	-994.568	-10.1929
67.6	-992.737	-10.1624
67.7	-990.906	-10.1624
67.8	-991.516	-10.1318
67.9	-994.263	-10.1624
68	-994.568	-10.2539
68.1	-995.789	-10.2234
68.2	-999.451	-10.1624
68.3	-1002.5	-10.1318
68.4	-1003.11	-10.1929
68.5	-999.756	-10.2234
68.6	-996.399	-10.1929
68.7	-995.483	-10.3149
68.8	-997.925	-10.2539
68.9	-1001.28	-10.1624
69	-999.451	-10.1929
69.1	-998.535	-10.2234
69.2	-1001.28	-10.1624
69.3	-1003.42	-10.1624
69.4	-1003.42	-10.1624
69.5	-1001.28	-10.1013
69.6	-1001.59	-10.1624
69.7	-1000.37	-10.1929
69.8	-999.146	-10.1929
69.9	-998.23	-10.1929
70	-998.535	-10.2234
70.1	-1001.28	-10.1318
70.2	-1000.06	-15.1978
70.3	-1007.69	-15.1367
70.4	-1176.15	-15.1672
70.5	-1465.45	-15.2893
70.6	-1549.99	-15.2283
70.7	-1550.9	-15.1062
70.8	-1556.4	-15.1672
70.9	-1550.9	-15.2588
71	-1549.68	-15.1978
71.1	-1549.68	-15.1367
71.2	-1549.99	-15.1672
71.3	-1547.24	-15.2283
71.4	-1543.58	-15.1672
71.5	-1546.94	-15.1367
71.6	-1544.8	-15.2283
71.7	-1540.22	-15.1672
71.8	-1542.97	-15.2283
71.9	-1543.88	-15.1978
72	-1541.14	-15.1367
72.1	-1542.66	-15.1978
72.2	-1547.55	-15.2588
72.3	-1549.99	-15.2283
72.4	-1552.73	-15.1367
72.5	-1552.73	-15.1062
72.6	-1549.38	-15.1978
72.7	-1547.55	-15.1978
72.8	-1550.29	-15.1978
72.9	-1551.82	-15.2588
73	-1550.9	-15.2283
73.1	-1556.4	-15.1978
73.2	-1558.53	-15.2283
73.3	-1554.26	-15.1978
73.4	-1552.12	-15.0452
73.5	-1548.46	-15.1672
73.6	-1547.24	-15.2588
73.7	-1547.24	-15.1978
73.8	-1543.58	-15.1367
73.9	-1539.61	-15.1367
74	-1536.87	-15.2283
74.1	-1537.48	-15.3198
74.2	-1539.61	-15.2588
74.3	-1542.36	-15.2588
74.4	-1543.27	-15.1978
74.5	-1541.44	-15.1062
74.6	-1541.44	-15.1367
74.7	-1544.19	-15.1978
74.8	-1547.85	-15.2588
74.9	-1548.46	-15.1062
75	-1546.63	-15.2588
75.1	-1544.49	-15.1672
75.2	-1542.97	-15.1062
75.3	-1543.27	-15.2588
75.4	-1540.83	-15.2283
75.5	-1537.78	-15.1062
75.6	-1538.09	-15.2893
75.7	-1541.14	-15.1672
75.8	-1540.53	-15.1367
75.9	-1539.61	-15.2588
76	-1540.83	-15.1062
76.1	-1542.97	-15.2588
76.2	-1548.46	-15.1978
76.3	-1549.68	-15.1672
76.4	-1546.94	-15.2588
76.5	-1548.46	-15.1367
76.6	-1548.77	-15.2588
76.7	-1549.07	-15.2588
76.8	-1550.9	-15.1367
76.9	-1554.57	-15.2283
77	-1553.96	-15.2283
77.1	-1545.72	-15.1367
77.2	-1540.53	-15.1062
77.3	-1539.31	-15.2893
77.4	-1544.19	-15.1367
77.5	-1548.46	-15.1978
77.6	-1543.27	-15.3198
77.7	-1532.59	-15.1367
77.8	-1531.37	-15.1062
77.9	-1540.83	-15.2283
78	-1549.38	-15.2283
78.1	-1552.73	-15.2283
78.2	-1548.77	-15.2283
78.3	-1541.75	-15.1062
78.4	-1541.14	-15.1978
78.5	-1542.66	-15.2893
78.6	-1542.05	-15.1978
78.7	-1543.88	-15.1367
78.8	-1546.02	-15.2588
78.9	-1544.49	-15.1062
79	-1543.58	-15.1672
79.1	-1548.16	-15.2283
79.2	-1555.18	-15.2588
79.3	-1553.34	-15.1978
79.4	-1546.63	-15.2588
79.5	-1542.97	-15.1367
79.6	-1541.75	-15.1367
79.7	-1543.88	-15.2588
79.8	-1540.22	-15.2283
79.9	-1543.88	-15.1978
80	-1551.82	-15.1367
80.1	-1552.73	-15.2283
80.2	-1551.82	-20.2637
80.3	-1582.34	-20.1416
80.4	-1818.85	-20.1721
80.5	-2066.35	-20.2637
80.6	-2101.75	-20.1416
80.7	-2087.1	-20.2026
80.8	-2081.6	-20.3247
80.9	-2080.08	-20.1111
81	-2079.16	-20.2026
81.1	-2080.99	-20.2637
81.2	-2083.74	-20.1416
81.3	-2085.57	-20.1416
81.4	-2088.01	-20.2942
81.5	-2082.52	-20.1416
81.6	-2081.91	-20.1111
81.7	-2082.82	-20.2942
81.8	-2081.6	-20.1111
81.9	-2083.44	-20.1721
82	-2086.49	-20.3247
82.1	-2089.84	-20.1111
82.2	-2079.77	-20.1416
82.3	-2073.97	-20.3247
82.4	-2081.91	-20.2026
82.5	-2088.62	-20.1111
82.6	-2085.57	-20.2637
82.7	-2084.66	-20.2026
82.8	-2087.4	-20.1416
82.9	-2082.82	-20.2942
83	-2081.3	-20.1721
83.1	-2080.69	-20.2026
83.2	-2082.52	-20.1416
83.3	-2080.08	-20.1416
83.4	-2080.38	-20.2637
83.5	-2081.6	-20.1111
83.6	-2079.77	-20.2332
83.7	-2077.64	-20.2637
83.8	-2077.03	-20.1111
83.9	-2076.11	-20.2026
84	-2081.6	-20.3247
84.1	-2084.05	-20.1416
84.2	-2082.21	-20.1721
84.3	-2086.79	-20.2942
84.4	-2088.01	-20.1416
84.5	-2087.4	-20.2942
84.6	-2091.67	-20.1721
84.7	-2091.06	-20.2332
84.8	-2084.35	-20.1416
84.9	-2083.74	-20.1721
85	-2088.01	-20.2637
85.1	-2091.98	-20.1416
85.2	-2088.62	-20.2026
85.3	-2075.81	-20.1111
85.4	-2071.53	-20.1721
85.5	-2078.55	-20.2332
85.6	-2080.69	-20.1416
85.7	-2077.94	-20.1416
85.8	-2071.53	-20.2332
85.9	-2066.96	-20.1416
86	-2067.87	-20.2637
86.1	-2067.57	-20.2026
86.2	-2070.62	-20.1111
86.3	-2077.64	-20.2332
86.4	-2077.33	-20.2332
86.5	-2073.97	-20.1111
86.6	-2073.06	-20.3247
86.7	-2073.36	-20.1416
86.8	-2069.09	-20.1721
86.9	-2066.04	-20.2026
87	-2068.18	-20.1416
87.1	-2073.06	-20.2026
87.2	-2074.89	-20.1721
87.3	-2080.69	-20.2026
