ATF	1.0
7	3     
"AcquisitionMode=Gap Free"
"Comment="
"YTop=10000,1000"
"YBottom=-10000,-1000"
"SweepStartTimesMS=0.000"
"SignalsExported=Im_Scaled,10_mv"
"Signals="	"Im_Scaled"	"10_mv"
"Time (s)"	"Trace #1 (pA)"	"Trace #1 (mV)"
0	441.895	19.6838
0.1	441.284	19.7449
0.2	446.472	19.7754
0.3	451.355	19.7449
0.4	449.524	19.6228
0.5	445.862	19.7449
0.6	449.524	19.7449
0.7	455.627	19.6838
0.8	450.745	19.7144
0.9	446.777	19.7449
1	446.777	19.6533
1.1	443.115	19.7754
1.2	444.336	19.7144
1.3	452.271	19.6228
1.4	453.491	19.7754
1.5	447.388	19.5923
1.6	447.388	19.7449
1.7	448.608	19.7144
1.8	442.505	19.6533
1.9	439.758	19.7449
2	442.2	19.6228
2.1	443.115	19.7449
2.2	446.167	19.7449
2.3	445.862	19.6838
2.4	442.505	19.7449
2.5	447.083	19.6533
2.6	453.796	19.7449
2.7	450.134	19.7754
2.8	444.946	19.5923
2.9	447.083	19.7449
3	457.458	19.7449
3.1	455.933	19.6533
3.2	448.303	19.7754
3.3	447.998	19.6228
3.4	447.083	19.7449
3.5	451.355	19.7754
3.6	459.9	19.6533
3.7	458.679	19.7449
3.8	455.627	19.8059
3.9	457.764	19.5923
4	462.036	19.7449
4.1	459.29	19.8059
4.2	455.933	19.6838
4.3	455.627	19.6533
4.4	455.933	19.6533
4.5	456.848	19.6838
4.6	456.543	19.8059
4.7	458.069	19.6838
4.8	457.458	19.6533
4.9	453.186	19.7449
5	453.491	19.7449
5.1	453.491	19.6838
5.2	455.322	19.6228
5.3	457.458	19.6838
5.4	453.796	19.7449
5.5	457.458	19.7754
5.6	460.51	19.6533
5.7	461.121	19.6533
5.8	456.848	19.7449
5.9	459.595	19.6533
6	456.848	19.7754
6.1	453.186	19.6838
6.2	452.881	19.6838
6.3	454.407	19.7754
6.4	455.017	19.5923
6.5	453.491	19.7449
6.6	456.848	19.7144
6.7	459.9	19.6838
6.8	459.9	19.7754
6.9	457.764	19.5923
7	455.322	19.7754
7.1	453.186	19.6228
7.2	451.05	19.7754
7.3	451.355	19.7144
7.4	456.848	19.6533
7.5	461.121	19.7449
7.6	465.698	19.6228
7.7	462.646	19.8364
7.8	459.9	19.6228
7.9	457.153	19.7144
8	458.069	19.7144
8.1	456.543	19.6533
8.2	456.543	19.7449
8.3	462.952	19.6533
8.4	463.562	19.7754
8.5	463.867	19.6533
8.6	463.257	19.7144
8.7	463.562	19.6533
8.8	463.562	19.7754
8.9	465.088	19.6228
9	469.666	19.7754
9.1	469.36	19.5923
9.2	464.783	19.7754
9.3	463.867	19.6533
9.4	461.426	19.7449
9.5	461.121	19.7449
9.6	462.036	19.6533
9.7	462.341	19.7754
9.8	466.309	19.6838
9.9	468.14	19.7449
10	462.036	19.6838
10.1	461.426	14.74
10.2	458.679	14.679
10.3	409.851	14.74
10.4	350.647	14.6484
10.5	341.187	14.7095
10.6	339.966	14.6179
10.7	342.407	14.7705
10.8	342.102	14.6179
10.9	343.933	14.7705
11	343.933	14.7095
11.1	338.44	14.6484
11.2	337.83	14.7095
11.3	342.407	14.801
11.4	340.576	14.6179
11.5	337.219	14.7095
11.6	336.304	14.801
11.7	336.914	14.6179
11.8	337.219	14.7705
11.9	342.102	14.7705
12	344.849	14.679
12.1	339.355	14.5874
12.2	339.355	14.801
12.3	339.661	14.74
12.4	337.524	14.5874
12.5	338.135	14.74
12.6	339.05	14.7095
12.7	338.135	14.6484
12.8	339.355	14.7095
12.9	339.355	14.7705
13	337.83	14.6484
13.1	335.999	14.7705
13.2	336.914	14.6484
13.3	337.524	14.7705
13.4	339.355	14.6484
13.5	342.712	14.74
13.6	343.628	14.6484
13.7	343.018	14.7705
13.8	339.966	14.6179
13.9	340.576	14.74
14	340.271	14.679
14.1	338.135	14.7705
14.2	338.44	14.7095
14.3	339.355	14.74
14.4	339.966	14.7095
14.5	340.881	14.7705
14.6	338.135	14.5874
14.7	336.914	14.7705
14.8	340.271	14.679
14.9	344.849	14.7705
15	346.68	14.74
15.1	345.764	14.6484
15.2	343.628	14.7095
15.3	347.595	14.679
15.4	350.037	14.74
15.5	344.849	14.6179
15.6	343.933	14.74
15.7	343.933	14.7095
15.8	341.492	14.7095
15.9	339.966	14.7705
16	340.576	14.5874
16.1	343.933	14.801
16.2	344.849	14.679
16.3	346.68	14.7095
16.4	345.459	14.801
16.5	344.238	14.5874
16.6	349.731	14.7705
16.7	349.121	14.6179
16.8	343.018	14.8315
16.9	343.628	14.6179
17	345.459	14.7705
17.1	346.069	14.5874
17.2	346.069	14.74
17.3	347.9	14.5874
17.4	349.731	14.8315
17.5	347.9	14.6179
17.6	346.375	14.7705
17.7	347.9	14.679
17.8	349.731	14.74
17.9	350.647	14.7095
18	347.595	14.7095
18.1	349.121	14.679
18.2	349.121	14.7095
18.3	346.069	14.6179
18.4	345.764	14.7705
18.5	350.037	14.74
18.6	351.563	14.6484
18.7	347.595	14.801
18.8	346.68	14.74
18.9	349.121	14.6484
19	347.595	14.74
19.1	345.764	14.6484
19.2	341.797	14.7705
19.3	339.661	14.679
19.4	338.44	14.7095
19.5	339.661	14.801
19.6	344.849	14.7095
19.7	347.9	14.7095
19.8	348.206	14.7705
19.9	343.933	14.6179
20	342.102	14.7705
20.1	340.881	9.70459
20.2	336.609	9.70459
20.3	288.391	9.82666
20.4	231.018	9.73511
20.5	220.947	9.70459
20.6	221.863	9.76563
20.7	221.863	9.76563
20.8	226.135	9.67407
20.9	224.915	9.61304
21	224.304	9.76563
21.1	224.915	9.76563
21.2	222.778	9.61304
21.3	223.694	9.73511
21.4	225.83	9.67407
21.5	226.44	9.64355
21.6	226.44	9.73511
21.7	222.778	9.64355
21.8	221.558	9.73511
21.9	222.778	9.73511
22	222.473	9.64355
22.1	223.999	9.70459
22.2	223.694	9.70459
22.3	223.999	9.73511
22.4	223.083	9.67407
22.5	224.915	9.73511
22.6	227.356	9.70459
22.7	224.609	9.76563
22.8	225.525	9.67407
22.9	227.051	9.67407
23	224.304	9.76563
23.1	224.915	9.61304
23.2	225.22	9.82666
23.3	223.694	9.64355
23.4	222.778	9.79614
23.5	222.473	9.76563
23.6	223.083	9.64355
23.7	222.168	9.73511
23.8	221.558	9.73511
23.9	225.83	9.61304
24	226.746	9.76563
24.1	225.83	9.64355
24.2	223.083	9.79614
24.3	224.304	9.61304
24.4	224.304	9.79614
24.5	224.304	9.61304
24.6	226.746	9.76563
24.7	226.135	9.76563
24.8	226.44	9.58252
24.9	224.915	9.73511
25	221.863	9.67407
25.1	223.999	9.73511
25.2	225.22	9.61304
25.3	225.83	9.79614
25.4	229.187	9.58252
25.5	227.356	9.79614
25.6	224.609	9.58252
25.7	223.389	9.73511
25.8	225.22	9.64355
25.9	227.051	9.76563
26	225.22	9.61304
26.1	225.83	9.76563
26.2	227.661	9.58252
26.3	225.525	9.73511
26.4	222.778	9.70459
26.5	223.999	9.76563
26.6	224.609	9.67407
26.7	226.44	9.82666
26.8	226.44	9.61304
26.9	225.525	9.79614
27	225.83	9.67407
27.1	226.135	9.76563
27.2	226.746	9.73511
27.3	227.051	9.73511
27.4	226.746	9.76563
27.5	226.746	9.73511
27.6	224.915	9.73511
27.7	224.915	9.70459
27.8	226.746	9.73511
27.9	228.577	9.67407
28	227.356	9.73511
28.1	225.525	9.67407
28.2	224.304	9.76563
28.3	224.609	9.67407
28.4	224.915	9.79614
28.5	226.44	9.61304
28.6	228.882	9.76563
28.7	229.797	9.70459
28.8	227.966	9.73511
28.9	227.966	9.70459
29	229.492	9.73511
29.1	229.187	9.73511
29.2	228.271	9.76563
29.3	230.713	9.67407
29.4	231.018	9.76563
29.5	228.271	9.70459
29.6	226.44	9.73511
29.7	227.966	9.76563
29.8	226.746	9.64355
29.9	225.525	9.73511
30	226.746	4.76074
30.1	226.44	4.66919
30.2	194.702	4.76074
30.3	137.329	4.66919
30.4	119.019	4.82178
30.5	120.239	4.63867
30.6	117.493	4.76074
30.7	116.272	4.73022
30.8	116.272	4.73022
30.9	116.882	4.66919
31	116.882	4.76074
31.1	116.882	4.69971
31.2	116.272	4.69971
31.3	115.662	4.73022
31.4	115.967	4.63867
31.5	116.577	4.82178
31.6	117.798	4.73022
31.7	119.019	4.66919
31.8	119.019	4.79126
31.9	119.019	4.73022
32	119.324	4.63867
32.1	117.493	4.82178
32.2	116.272	4.63867
32.3	116.882	4.79126
32.4	116.882	4.69971
32.5	119.324	4.76074
32.6	117.798	4.73022
32.7	116.882	4.63867
32.8	115.662	4.85229
32.9	115.356	4.79126
33	118.103	4.66919
33.1	117.493	4.79126
33.2	116.882	4.66919
33.3	116.272	4.76074
33.4	117.188	4.73022
33.5	116.882	4.63867
33.6	116.577	4.82178
33.7	117.798	4.66919
33.8	118.408	4.79126
33.9	117.798	4.76074
34	115.356	4.66919
34.1	115.051	4.69971
34.2	116.577	4.79126
34.3	118.713	4.63867
34.4	119.019	4.79126
34.5	117.493	4.63867
34.6	118.713	4.76074
34.7	119.934	4.73022
34.8	118.713	4.69971
34.9	117.493	4.79126
35	118.713	4.63867
35.1	119.019	4.79126
35.2	117.493	4.60815
35.3	116.577	4.82178
35.4	117.188	4.60815
35.5	116.272	4.85229
35.6	118.408	4.63867
35.7	119.324	4.82178
35.8	117.798	4.60815
35.9	116.577	4.79126
36	116.272	4.69971
36.1	117.798	4.66919
36.2	119.629	4.79126
36.3	119.324	4.69971
36.4	118.408	4.76074
36.5	119.629	4.63867
36.6	118.103	4.79126
36.7	118.713	4.69971
36.8	118.713	4.76074
36.9	118.103	4.66919
37	119.019	4.82178
37.1	118.713	4.63867
37.2	118.408	4.82178
37.3	117.798	4.73022
37.4	118.713	4.76074
37.5	120.239	4.73022
37.6	120.544	4.76074
37.7	119.934	4.69971
37.8	118.713	4.76074
37.9	117.798	4.66919
38	116.577	4.85229
38.1	117.188	4.60815
38.2	118.103	4.79126
38.3	118.103	4.73022
38.4	119.629	4.73022
38.5	119.019	4.82178
38.6	119.934	4.63867
38.7	119.629	4.82178
38.8	118.103	4.73022
38.9	118.408	4.69971
39	119.629	4.79126
39.1	119.324	4.66919
39.2	119.019	4.73022
39.3	119.934	4.73022
39.4	119.934	4.69971
39.5	118.103	4.76074
39.6	116.272	4.76074
39.7	118.408	4.73022
39.8	120.239	4.69971
39.9	122.07	4.82178
40	121.765	4.76074
40.1	120.239	-0.366211
40.2	118.408	-0.244141
40.3	92.4683	-0.183105
40.4	40.8936	-0.305176
40.5	22.583	-0.274658
40.6	23.1934	-0.183105
40.7	23.1934	-0.274658
40.8	23.1934	-0.305176
40.9	22.8882	-0.244141
41	22.8882	-0.213623
41.1	23.1934	-0.335693
41.2	23.1934	-0.244141
41.3	22.583	-0.244141
41.4	23.1934	-0.335693
41.5	23.1934	-0.244141
41.6	22.8882	-0.183105
41.7	23.1934	-0.305176
41.8	23.1934	-0.274658
41.9	23.1934	-0.213623
42	22.583	-0.213623
42.1	23.1934	-0.396729
42.2	23.1934	-0.305176
42.3	22.8882	-0.183105
42.4	22.583	-0.244141
42.5	22.583	-0.274658
42.6	22.8882	-0.366211
42.7	22.8882	-0.244141
42.8	22.583	-0.183105
42.9	22.583	-0.244141
43	23.1934	-0.213623
43.1	22.8882	-0.335693
43.2	23.1934	-0.305176
43.3	22.8882	-0.183105
43.4	22.8882	-0.183105
43.5	22.8882	-0.366211
43.6	22.8882	-0.335693
43.7	22.583	-0.274658
43.8	22.583	-0.305176
43.9	22.2778	-0.183105
44	22.2778	-0.244141
44.1	22.583	-0.244141
44.2	22.2778	-0.274658
44.3	22.583	-0.396729
44.4	22.583	-0.305176
44.5	22.583	-0.183105
44.6	22.583	-0.244141
44.7	22.8882	-0.305176
44.8	23.1934	-0.274658
44.9	22.8882	-0.244141
45	22.583	-0.305176
45.1	22.8882	-0.244141
45.2	22.8882	-0.274658
45.3	23.1934	-0.274658
45.4	22.2778	-0.244141
45.5	22.2778	-0.274658
45.6	22.583	-0.305176
45.7	22.2778	-0.213623
45.8	21.9727	-0.244141
45.9	21.9727	-0.244141
46	22.2778	-0.335693
46.1	22.583	-0.183105
46.2	22.8882	-0.366211
46.3	22.583	-0.213623
46.4	22.8882	-0.427246
46.5	22.583	-0.183105
46.6	22.583	-0.335693
46.7	22.583	-0.213623
46.8	22.8882	-0.305176
46.9	22.583	-0.213623
47	22.583	-0.305176
47.1	22.8882	-0.305176
47.2	22.8882	-0.244141
47.3	22.8882	-0.274658
47.4	22.583	-0.244141
47.5	22.583	-0.305176
47.6	22.583	-0.213623
47.7	23.1934	-0.366211
47.8	22.583	-0.183105
47.9	22.583	-0.396729
48	22.2778	-0.152588
48.1	22.2778	-0.244141
48.2	22.583	-0.305176
48.3	22.2778	-0.183105
48.4	22.583	-0.244141
48.5	23.1934	-0.335693
48.6	22.583	-0.244141
48.7	21.9727	-0.244141
48.8	22.2778	-0.213623
48.9	22.2778	-0.244141
49	22.2778	-0.305176
49.1	22.583	-0.183105
49.2	22.583	-0.335693
49.3	22.2778	-0.213623
49.4	22.2778	-0.335693
49.5	22.583	-0.274658
49.6	22.583	-0.244141
49.7	22.2778	-0.274658
49.8	22.583	-0.213623
49.9	21.9727	-0.305176
50	22.583	-0.152588
50.1	22.8882	-5.31006
50.2	10.9863	-5.15747
50.3	-31.1279	-5.31006
50.4	-56.4575	-5.18799
50.5	-56.7627	-5.27954
50.6	-56.1523	-5.24902
50.7	-55.8472	-5.27954
50.8	-56.4575	-5.15747
50.9	-57.373	-5.27954
51	-56.7627	-5.24902
51.1	-57.6782	-5.15747
51.2	-57.6782	-5.34058
51.3	-57.373	-5.12695
51.4	-57.0679	-5.34058
51.5	-57.9834	-5.18799
51.6	-58.2886	-5.21851
51.7	-57.9834	-5.27954
51.8	-57.373	-5.24902
51.9	-57.0679	-5.18799
52	-57.373	-5.31006
52.1	-57.373	-5.18799
52.2	-56.7627	-5.27954
52.3	-57.0679	-5.21851
52.4	-57.0679	-5.27954
52.5	-57.0679	-5.21851
52.6	-56.4575	-5.31006
52.7	-56.1523	-5.18799
52.8	-56.7627	-5.27954
52.9	-55.8472	-5.24902
53	-55.8472	-5.18799
53.1	-56.4575	-5.24902
53.2	-56.1523	-5.21851
53.3	-55.8472	-5.27954
53.4	-56.4575	-5.24902
53.5	-57.0679	-5.24902
53.6	-57.6782	-5.27954
53.7	-57.373	-5.21851
53.8	-57.9834	-5.18799
53.9	-58.2886	-5.31006
54	-58.5938	-5.15747
54.1	-58.2886	-5.27954
54.2	-57.6782	-5.15747
54.3	-56.7627	-5.21851
54.4	-57.6782	-5.27954
54.5	-57.9834	-5.18799
54.6	-57.6782	-5.34058
54.7	-58.8989	-5.18799
54.8	-58.5938	-5.31006
54.9	-57.373	-5.15747
55	-57.6782	-5.31006
55.1	-57.9834	-5.18799
55.2	-57.6782	-5.27954
55.3	-58.2886	-5.21851
55.4	-57.9834	-5.18799
55.5	-57.373	-5.24902
55.6	-57.0679	-5.18799
55.7	-57.0679	-5.21851
55.8	-56.7627	-5.27954
55.9	-56.4575	-5.12695
56	-56.7627	-5.27954
56.1	-57.9834	-5.15747
56.2	-58.2886	-5.27954
56.3	-57.9834	-5.18799
56.4	-57.373	-5.27954
56.5	-57.0679	-5.18799
56.6	-58.2886	-5.31006
56.7	-58.5938	-5.15747
56.8	-57.6782	-5.34058
56.9	-57.373	-5.18799
57	-56.7627	-5.31006
57.1	-57.0679	-5.15747
57.2	-57.0679	-5.34058
57.3	-57.373	-5.15747
57.4	-57.9834	-5.34058
57.5	-57.9834	-5.15747
57.6	-57.9834	-5.37109
57.7	-57.373	-5.15747
57.8	-56.4575	-5.31006
57.9	-57.373	-5.15747
58	-58.8989	-5.31006
58.1	-58.5938	-5.15747
58.2	-57.6782	-5.31006
58.3	-57.6782	-5.18799
58.4	-57.373	-5.27954
58.5	-58.2886	-5.21851
58.6	-59.5093	-5.27954
58.7	-59.2041	-5.18799
58.8	-58.5938	-5.27954
58.9	-57.6782	-5.27954
59	-57.9834	-5.15747
59.1	-58.2886	-5.18799
59.2	-58.2886	-5.34058
59.3	-58.2886	-5.15747
59.4	-58.2886	-5.34058
59.5	-58.5938	-5.15747
59.6	-58.8989	-5.31006
59.7	-58.5938	-5.12695
59.8	-57.0679	-5.34058
59.9	-57.9834	-5.18799
60	-59.2041	-10.2844
60.1	-60.4248	-10.1318
60.2	-79.6509	-10.3149
60.3	-114.441	-10.1624
60.4	-124.817	-10.2234
60.5	-123.901	-10.2234
60.6	-124.512	-10.1013
60.7	-124.512	-10.2844
60.8	-124.817	-10.1624
60.9	-123.901	-10.1624
61	-122.681	-10.2844
61.1	-123.596	-10.1624
61.2	-122.681	-10.2539
61.3	-122.986	-10.1624
61.4	-122.986	-10.2234
61.5	-122.681	-10.1929
61.6	-122.681	-10.1318
61.7	-122.681	-10.2539
61.8	-122.375	-10.1318
61.9	-122.07	-10.3455
62	-122.681	-10.1318
62.1	-122.986	-10.2844
62.2	-123.901	-10.2234
62.3	-123.596	-10.1624
62.4	-123.596	-10.2234
62.5	-123.596	-10.2234
62.6	-122.986	-10.1624
62.7	-124.207	-10.2844
62.8	-122.681	-10.0708
62.9	-122.07	-10.2844
63	-122.07	-10.1013
63.1	-122.07	-10.2539
63.2	-121.46	-10.1318
63.3	-122.681	-10.2234
63.4	-124.512	-10.1318
63.5	-122.986	-10.2844
63.6	-121.765	-10.1318
63.7	-122.07	-10.3149
63.8	-122.986	-10.1624
63.9	-124.207	-10.2539
64	-125.732	-10.2234
64.1	-125.732	-10.1318
64.2	-122.681	-10.1929
64.3	-123.596	-10.2844
64.4	-124.817	-10.1929
64.5	-122.07	-10.1013
64.6	-121.765	-10.2844
64.7	-123.291	-10.1318
64.8	-123.291	-10.2844
64.9	-123.596	-10.1318
65	-124.207	-10.2234
65.1	-122.681	-10.1318
65.2	-121.46	-10.1929
65.3	-122.986	-10.1624
65.4	-123.291	-10.1624
65.5	-121.155	-10.3149
65.6	-119.629	-10.1624
65.7	-119.324	-10.2234
65.8	-122.07	-10.2844
65.9	-123.291	-10.1624
66	-124.207	-10.1624
66.1	-124.207	-10.2539
66.2	-123.291	-10.2844
66.3	-122.986	-10.1318
66.4	-122.681	-10.1929
66.5	-123.596	-10.2539
66.6	-122.986	-10.1624
66.7	-122.07	-10.1624
66.8	-120.239	-10.2844
66.9	-119.629	-10.1318
67	-118.713	-10.1318
67.1	-119.934	-10.2539
67.2	-121.155	-10.1624
67.3	-122.375	-10.2539
67.4	-123.291	-10.1624
67.5	-121.765	-10.2234
67.6	-124.512	-10.1624
67.7	-123.596	-10.1929
67.8	-121.155	-10.2234
67.9	-122.375	-10.1624
68	-122.681	-10.2844
68.1	-121.155	-10.1929
68.2	-117.798	-10.2844
68.3	-118.408	-10.1624
68.4	-120.544	-10.2844
68.5	-122.07	-10.1624
68.6	-121.765	-10.2234
68.7	-121.46	-10.1929
68.8	-121.46	-10.1929
68.9	-120.239	-10.2234
69	-119.324	-10.2234
69.1	-122.986	-10.2234
69.2	-126.038	-10.1929
69.3	-124.817	-10.2234
69.4	-122.681	-10.1624
69.5	-122.07	-10.2234
69.6	-123.291	-10.1624
69.7	-123.291	-10.2539
69.8	-123.596	-10.1318
69.9	-123.901	-10.2539
70	-124.207	-10.1318
70.1	-124.817	-15.2893
70.2	-137.024	-15.1367
70.3	-163.269	-15.2283
70.4	-173.645	-15.1367
70.5	-173.34	-15.2588
70.6	-177.002	-15.1978
70.7	-175.476	-15.2588
70.8	-176.086	-15.1672
70.9	-179.443	-15.2588
71	-178.833	-15.1978
71.1	-178.223	-15.1367
71.2	-178.833	-15.2893
71.3	-180.969	-15.1367
71.4	-181.274	-15.2893
71.5	-178.833	-15.1062
71.6	-173.035	-15.2588
71.7	-171.814	-15.1978
71.8	-176.086	-15.1978
71.9	-180.054	-15.2588
72	-176.086	-15.1672
72.1	-171.204	-15.2588
72.2	-173.645	-15.1978
72.3	-174.255	-15.1367
72.4	-173.95	-15.1978
72.5	-177.002	-15.1672
72.6	-174.866	-15.1978
72.7	-170.593	-15.1672
72.8	-171.204	-15.1978
72.9	-173.645	-15.1672
73	-175.781	-15.2893
73.1	-173.645	-15.1978
73.2	-169.983	-15.1367
73.3	-172.424	-15.2893
73.4	-170.898	-15.1367
73.5	-172.119	-15.2588
73.6	-174.255	-15.1672
73.7	-175.781	-15.2283
73.8	-174.866	-15.1672
73.9	-173.645	-15.1978
74	-175.171	-15.1978
74.1	-172.424	-15.1978
74.2	-171.204	-15.2588
74.3	-172.729	-15.1978
74.4	-172.424	-15.2283
74.5	-172.119	-15.1978
74.6	-171.204	-15.1367
74.7	-167.847	-15.3198
74.8	-171.509	-15.1672
74.9	-173.645	-15.2893
75	-177.307	-15.1672
75.1	-179.443	-15.2588
75.2	-177.002	-15.1672
75.3	-174.255	-15.1367
75.4	-175.781	-15.2588
75.5	-173.34	-15.1367
75.6	-177.002	-15.2893
75.7	-179.443	-15.1367
75.8	-178.223	-15.3198
75.9	-177.307	-15.1367
76	-176.392	-15.2893
76.1	-175.781	-15.1062
76.2	-175.476	-15.2283
76.3	-171.204	-15.1672
76.4	-171.814	-15.2588
76.5	-176.697	-15.1978
76.6	-178.528	-15.1978
76.7	-176.392	-15.1978
76.8	-179.749	-15.2283
76.9	-177.917	-15.1672
77	-176.697	-15.2283
77.1	-179.138	-15.1062
77.2	-176.086	-15.3198
77.3	-174.866	-15.0757
77.4	-177.612	-15.3198
77.5	-177.307	-15.1062
77.6	-175.781	-15.2588
77.7	-173.95	-15.1978
77.8	-176.086	-15.1367
77.9	-175.476	-15.3198
78	-175.476	-15.1367
78.1	-173.34	-15.1978
78.2	-171.509	-15.2283
78.3	-174.561	-15.1367
78.4	-174.255	-15.1978
78.5	-174.866	-15.1672
78.6	-176.697	-15.1672
78.7	-174.866	-15.2283
78.8	-173.035	-15.1672
78.9	-175.781	-15.2283
79	-176.392	-15.1978
79.1	-175.171	-15.1672
79.2	-176.086	-15.2283
79.3	-177.612	-15.1978
79.4	-176.086	-15.1672
79.5	-176.086	-15.3503
79.6	-176.392	-15.1367
79.7	-179.138	-15.2588
79.8	-179.443	-15.1367
79.9	-178.833	-15.2283
80	-180.054	-15.1672
80.1	-180.054	-20.2026
80.2	-179.443	-20.1721
80.3	-190.125	-20.2332
80.4	-210.571	-20.2026
80.5	-216.675	-20.1111
80.6	-215.759	-20.2942
80.7	-211.487	-20.1721
80.8	-210.571	-20.1721
80.9	-212.097	-20.2637
81	-211.792	-20.2026
81.1	-215.759	-20.1721
81.2	-220.032	-20.2026
81.3	-217.896	-20.2026
81.4	-215.759	-20.2026
81.5	-213.013	-20.1721
81.6	-213.928	-20.1111
81.7	-213.928	-20.2637
81.8	-210.876	-20.1721
81.9	-210.876	-20.2026
82	-213.623	-20.2026
82.1	-211.487	-20.2637
82.2	-210.876	-20.1416
82.3	-211.792	-20.2026
82.4	-209.961	-20.2637
82.5	-208.13	-20.1416
82.6	-209.351	-20.2637
82.7	-211.182	-20.3247
82.8	-213.623	-20.1721
82.9	-211.792	-20.1721
83	-210.571	-20.2942
83.1	-213.318	-20.2332
83.2	-210.266	-20.1111
83.3	-206.299	-20.2332
83.4	-207.825	-20.3247
83.5	-206.604	-20.2637
83.6	-206.604	-20.1721
83.7	-213.318	-20.1416
83.8	-213.013	-20.3247
83.9	-205.994	-20.1416
84	-204.468	-20.1721
84.1	-205.383	-20.2637
84.2	-203.857	-20.1416
84.3	-207.825	-20.1721
84.4	-206.604	-20.2637
84.5	-204.773	-20.2332
84.6	-209.961	-20.1416
84.7	-215.149	-20.2942
84.8	-211.182	-20.1416
84.9	-209.351	-20.2942
85	-216.064	-20.1111
85.1	-215.454	-20.2332
85.2	-206.604	-20.1721
85.3	-204.468	-20.2637
85.4	-207.214	-20.1416
85.5	-210.876	-20.2637
85.6	-216.675	-20.2026
85.7	-213.013	-20.2332
85.8	-209.351	-20.1416
85.9	-209.961	-20.1721
86	-206.909	-20.1721
86.1	-205.688	-20.2026
86.2	-207.825	-20.2332
86.3	-211.487	-20.2332
86.4	-207.825	-20.2332
86.5	-210.266	-20.1721
86.6	-213.928	-20.2637
86.7	-215.149	-20.1721
86.8	-209.351	-20.2026
86.9	-207.825	-20.1721
87	-207.825	-20.1416
87.1	-209.656	-20.2637
87.2	-208.74	-20.1721
87.3	-204.468	-20.2332
87.4	-201.416	-20.1721
