ATF	1.0
7	3     
"AcquisitionMode=Gap Free"
"Comment="
"YTop=10000,1000"
"YBottom=-10000,-1000"
"SweepStartTimesMS=0.000"
"SignalsExported=Im_Scaled,10_mv"
"Signals="	"Im_Scaled"	"10_mv"
"Time (s)"	"Trace #1 (pA)"	"Trace #1 (mV)"
0	1960.45	19.6838
0.1	1958.92	19.6838
0.2	1953.43	19.7449
0.3	1962.28	19.7449
0.4	1973.57	19.7754
0.5	1972.05	19.7754
0.6	1968.08	19.6838
0.7	1963.5	19.6533
0.8	1966.86	19.7144
0.9	1977.54	19.7754
1	1990.05	19.8059
1.1	1993.41	19.8059
1.2	1979.98	19.7449
1.3	1968.99	19.8364
1.4	1972.66	19.7449
1.5	1962.28	19.7449
1.6	1949.46	19.7449
1.7	1948.55	19.6838
1.8	1951.9	19.7449
1.9	1952.21	19.7144
2	1947.94	19.6533
2.1	1956.18	19.7449
2.2	1972.96	19.7754
2.3	1979.98	19.7144
2.4	1972.35	19.7754
2.5	1961.67	19.5923
2.6	1951.9	19.6228
2.7	1943.05	19.7449
2.8	1940.31	19.6533
2.9	1929.02	19.7449
3	1925.66	19.7754
3.1	1936.34	19.7449
3.2	1936.04	19.8059
3.3	1923.83	19.7754
3.4	1912.23	19.7449
3.5	1912.23	19.8059
3.6	1918.64	19.7449
3.7	1919.86	19.7144
3.8	1912.84	19.7754
3.9	1906.74	19.7754
4	1908.26	19.6533
4.1	1913.15	19.6533
4.2	1916.5	19.6228
4.3	1917.42	19.6228
4.4	1918.33	19.7449
4.5	1915.89	19.7449
4.6	1916.2	19.8059
4.7	1920.17	19.8059
4.8	1916.81	19.7449
4.9	1912.54	19.8059
5	1914.67	19.8059
5.1	1920.78	19.7449
5.2	1919.25	19.7754
5.3	1913.15	19.7449
5.4	1903.08	19.7144
5.5	1890.26	19.7754
5.6	1884.77	19.7754
5.7	1886.9	19.7144
5.8	1889.65	19.7449
5.9	1899.41	19.5923
6	1909.79	19.6228
6.1	1911.93	19.6533
6.2	1906.74	19.6838
6.3	1902.16	19.6533
6.4	1903.69	19.7754
6.5	1907.96	19.7754
6.6	1907.65	19.7449
6.7	1905.21	19.8059
6.8	1906.13	19.6838
6.9	1907.96	19.6533
7	1912.54	19.6838
7.1	1908.26	19.6838
7.2	1909.79	19.6838
7.3	1913.45	19.7144
7.4	1910.4	19.6533
7.5	1910.71	19.6228
7.6	1901.86	19.6228
7.7	1894.53	19.6533
7.8	1891.78	19.7144
7.9	1878.66	19.6533
8	1863.71	19.7754
8.1	1866.15	19.6838
8.2	1872.56	19.6533
8.3	1872.25	19.6228
8.4	1874.69	19.6533
8.5	1878.36	19.7144
8.6	1873.78	19.7449
8.7	1874.08	19.8364
8.8	1883.54	19.7754
8.9	1882.02	19.6533
9	1871.64	19.6838
9.1	1866.76	19.7144
9.2	1863.1	19.7449
9.3	1859.44	19.7144
9.4	1862.49	19.7754
9.5	1864.93	19.7754
9.6	1865.84	19.6838
9.7	1868.29	19.6228
9.8	1872.25	19.6533
9.9	1874.39	19.6228
10	1874.69	19.6228
10.1	1876.83	19.7449
10.2	1868.59	14.74
10.3	1836.55	14.679
10.4	1641.54	14.801
10.5	1476.75	14.801
10.6	1478.88	14.7705
10.7	1495.06	14.7095
10.8	1502.99	14.6484
10.9	1506.65	14.679
11	1508.18	14.6179
11.1	1522.52	14.6484
11.2	1534.12	14.6484
11.3	1539.31	14.6484
11.4	1545.72	14.6179
11.5	1552.43	14.6179
11.6	1551.51	14.679
11.7	1548.16	14.6179
11.8	1546.02	14.679
11.9	1544.8	14.74
12	1546.33	14.679
12.1	1550.29	14.6484
12.2	1554.26	14.6179
12.3	1555.18	14.7095
12.4	1553.65	14.74
12.5	1553.65	14.74
12.6	1551.82	14.7705
12.7	1550.9	14.74
12.8	1558.53	14.6484
12.9	1567.08	14.5874
13	1569.21	14.6484
13.1	1568.6	14.7705
13.2	1574.71	14.74
13.3	1577.45	14.7705
13.4	1574.1	14.7705
13.5	1573.18	14.6484
13.6	1569.52	14.6484
13.7	1571.35	14.7095
13.8	1571.96	14.801
13.9	1570.43	14.74
14	1568.91	14.74
14.1	1568.91	14.801
14.2	1573.79	14.801
14.3	1575.62	14.679
14.4	1573.18	14.679
14.5	1568.91	14.6484
14.6	1571.35	14.5874
14.7	1566.77	14.6179
14.8	1558.23	14.74
14.9	1558.53	14.7705
15	1562.81	14.801
15.1	1559.45	14.74
15.2	1560.06	14.7705
15.3	1563.42	14.801
15.4	1564.94	14.7705
15.5	1567.69	14.801
15.6	1565.55	14.7705
15.7	1567.38	14.7095
15.8	1567.69	14.679
15.9	1564.33	14.7705
16	1564.03	14.7705
16.1	1566.47	14.6484
16.2	1571.04	14.679
16.3	1576.84	14.7095
16.4	1576.54	14.7095
16.5	1575.93	14.679
16.6	1576.23	14.74
16.7	1581.12	14.74
16.8	1583.25	14.74
16.9	1579.9	14.74
17	1582.95	14.74
17.1	1588.44	14.74
17.2	1591.8	14.74
17.3	1588.44	14.7095
17.4	1579.28	14.6179
17.5	1571.04	14.6179
17.6	1567.69	14.7095
17.7	1567.38	14.679
17.8	1571.66	14.6179
17.9	1575.62	14.7095
18	1570.74	14.7705
18.1	1568.91	14.7705
18.2	1569.82	14.801
18.3	1562.81	14.801
18.4	1556.4	14.7705
18.5	1559.75	14.7705
18.6	1567.38	14.801
18.7	1566.77	14.7095
18.8	1555.48	14.74
18.9	1547.85	14.7705
19	1546.63	14.74
19.1	1546.02	14.7705
19.2	1550.29	14.7705
19.3	1559.75	14.74
19.4	1571.35	14.801
19.5	1579.9	14.801
19.6	1577.15	14.74
19.7	1571.66	14.679
19.8	1569.21	14.7095
19.9	1567.99	14.679
20	1563.72	9.67407
20.1	1547.55	9.67407
20.2	1370.24	9.61304
20.3	1136.78	9.67407
20.4	1095.28	9.70459
20.5	1112.37	9.64355
20.6	1119.38	9.61304
20.7	1123.66	9.67407
20.8	1128.23	9.67407
20.9	1130.37	9.73511
21	1130.68	9.82666
21.1	1131.9	9.76563
21.2	1135.86	9.76563
21.3	1138	9.79614
21.4	1139.53	9.67407
21.5	1139.53	9.67407
21.6	1142.58	9.61304
21.7	1145.02	9.61304
21.8	1145.94	9.64355
21.9	1147.77	9.61304
22	1148.99	9.67407
22.1	1147.16	9.76563
22.2	1147.16	9.79614
22.3	1149.6	9.76563
22.4	1152.95	9.76563
22.5	1153.26	9.76563
22.6	1150.21	9.58252
22.7	1150.51	9.73511
22.8	1151.73	9.82666
22.9	1151.73	9.73511
23	1151.12	9.73511
23.1	1153.56	9.64355
23.2	1158.14	9.58252
23.3	1163.02	9.67407
23.4	1167.6	9.64355
23.5	1170.65	9.70459
23.6	1172.18	9.79614
23.7	1172.79	9.79614
23.8	1176.45	9.70459
23.9	1179.5	9.64355
24	1176.15	9.61304
24.1	1176.76	9.64355
24.2	1184.08	9.70459
24.3	1188.35	9.73511
24.4	1186.22	9.76563
24.5	1184.69	9.76563
24.6	1185.3	9.73511
24.7	1185	9.70459
24.8	1181.34	9.82666
24.9	1178.89	9.73511
25	1177.98	9.73511
25.1	1175.23	9.79614
25.2	1173.1	9.73511
25.3	1171.88	9.82666
25.4	1172.79	9.67407
25.5	1174.93	9.61304
25.6	1175.23	9.67407
25.7	1174.32	9.70459
25.8	1177.06	9.67407
25.9	1183.17	9.76563
26	1183.47	9.76563
26.1	1181.64	9.73511
26.2	1188.05	9.79614
26.3	1194.76	9.76563
26.4	1193.85	9.76563
26.5	1192.32	9.79614
26.6	1192.02	9.70459
26.7	1188.96	9.73511
26.8	1187.44	9.79614
26.9	1189.27	9.70459
27	1188.05	9.79614
27.1	1186.22	9.82666
27.2	1182.25	9.73511
27.3	1178.89	9.76563
27.4	1182.25	9.76563
27.5	1187.44	9.73511
27.6	1186.83	9.82666
27.7	1184.08	9.76563
27.8	1182.25	9.73511
27.9	1183.47	9.64355
28	1183.78	9.67407
28.1	1182.25	9.67407
28.2	1183.47	9.79614
28.3	1186.22	9.76563
28.4	1186.83	9.76563
28.5	1181.64	9.76563
28.6	1181.03	9.73511
28.7	1182.25	9.73511
28.8	1181.95	9.70459
28.9	1182.86	9.67407
29	1187.13	9.70459
29.1	1191.41	9.70459
29.2	1194.76	9.70459
29.3	1192.32	9.76563
29.4	1189.88	9.79614
29.5	1190.8	9.73511
29.6	1189.27	9.73511
29.7	1184.39	9.79614
29.8	1183.17	9.73511
29.9	1185.91	9.79614
30	1185.91	9.82666
30.1	1186.22	9.79614
30.2	1182.56	4.82178
30.3	1096.5	4.82178
30.4	808.105	4.79126
30.5	653.992	4.73022
30.6	654.602	4.76074
30.7	656.433	4.76074
30.8	657.349	4.73022
30.9	661.316	4.73022
31	665.283	4.69971
31.1	665.283	4.63867
31.2	663.147	4.66919
31.3	663.452	4.63867
31.4	664.368	4.66919
31.5	666.199	4.66919
31.6	667.725	4.66919
31.7	668.945	4.63867
31.8	669.556	4.69971
31.9	668.64	4.73022
32	668.64	4.76074
32.1	670.166	4.82178
32.2	671.082	4.79126
32.3	671.692	4.79126
32.4	671.387	4.82178
32.5	669.861	4.82178
32.6	671.692	4.76074
32.7	673.828	4.79126
32.8	673.828	4.82178
32.9	675.659	4.73022
33	677.185	4.69971
33.1	675.964	4.76074
33.2	675.354	4.76074
33.3	674.744	4.69971
33.4	674.744	4.69971
33.5	674.744	4.76074
33.6	675.354	4.63867
33.7	673.828	4.82178
33.8	672.607	4.79126
33.9	673.828	4.66919
34	673.523	4.69971
34.1	673.523	4.73022
34.2	674.438	4.79126
34.3	674.744	4.82178
34.4	675.049	4.82178
34.5	674.744	4.82178
34.6	673.218	4.79126
34.7	670.776	4.73022
34.8	671.997	4.73022
34.9	674.133	4.76074
35	674.438	4.66919
35.1	673.218	4.69971
35.2	674.438	4.76074
35.3	676.88	4.69971
35.4	675.049	4.69971
35.5	672.607	4.79126
35.6	675.354	4.73022
35.7	677.795	4.82178
35.8	678.101	4.85229
35.9	676.575	4.79126
36	675.354	4.76074
36.1	677.185	4.66919
36.2	679.626	4.76074
36.3	678.101	4.69971
36.4	676.88	4.66919
36.5	677.185	4.76074
36.6	678.101	4.76074
36.7	678.406	4.76074
36.8	677.185	4.66919
36.9	674.744	4.66919
37	671.997	4.66919
37.1	670.166	4.82178
37.2	671.387	4.79126
37.3	671.692	4.76074
37.4	672.302	4.69971
37.5	673.218	4.63867
37.6	673.218	4.79126
37.7	673.523	4.79126
37.8	673.523	4.76074
37.9	671.997	4.79126
38	673.828	4.79126
38.1	677.49	4.66919
38.2	677.795	4.82178
38.3	676.575	4.79126
38.4	675.659	4.69971
38.5	673.218	4.66919
38.6	674.744	4.69971
38.7	679.016	4.66919
38.8	677.795	4.63867
38.9	675.964	4.69971
39	676.575	4.66919
39.1	677.185	4.69971
39.2	678.406	4.69971
39.3	678.101	4.82178
39.4	677.49	4.73022
39.5	676.575	4.82178
39.6	676.27	4.73022
39.7	677.795	4.63867
39.8	680.847	4.76074
39.9	680.237	4.73022
40	678.406	4.79126
40.1	675.964	4.63867
40.2	675.049	-0.366211
40.3	664.673	-0.244141
40.4	471.191	-0.213623
40.5	169.983	-0.244141
40.6	90.0269	-0.305176
40.7	94.9097	-0.366211
40.8	92.1631	-0.244141
40.9	92.4683	-0.152588
41	93.0786	-0.244141
41.1	92.7734	-0.305176
41.2	92.4683	-0.305176
41.3	92.1631	-0.213623
41.4	91.5527	-0.244141
41.5	92.1631	-0.152588
41.6	93.0786	-0.152588
41.7	93.3838	-0.213623
41.8	93.3838	-0.244141
41.9	93.689	-0.305176
42	93.0786	-0.366211
42.1	92.4683	-0.244141
42.2	93.0786	-0.244141
42.3	93.3838	-0.244141
42.4	93.0786	-0.213623
42.5	92.7734	-0.183105
42.6	93.0786	-0.244141
42.7	93.689	-0.183105
42.8	93.3838	-0.183105
42.9	93.689	-0.183105
43	93.3838	-0.183105
43.1	93.3838	-0.183105
43.2	93.9941	-0.213623
43.3	93.689	-0.152588
43.4	93.689	-0.183105
43.5	93.689	-0.366211
43.6	93.3838	-0.274658
43.7	93.0786	-0.244141
43.8	93.0786	-0.274658
43.9	93.689	-0.183105
44	93.3838	-0.183105
44.1	93.3838	-0.244141
44.2	93.0786	-0.213623
44.3	93.3838	-0.244141
44.4	93.689	-0.244141
44.5	93.3838	-0.244141
44.6	93.689	-0.305176
44.7	93.689	-0.396729
44.8	93.0786	-0.274658
44.9	93.0786	-0.213623
45	93.3838	-0.244141
45.1	92.7734	-0.183105
45.2	93.0786	-0.244141
45.3	93.689	-0.335693
45.4	93.689	-0.305176
45.5	93.689	-0.213623
45.6	93.9941	-0.244141
45.7	93.689	-0.183105
45.8	93.9941	-0.213623
45.9	93.9941	-0.396729
46	93.9941	-0.274658
46.1	94.2993	-0.274658
46.2	93.9941	-0.305176
46.3	93.9941	-0.183105
46.4	93.689	-0.183105
46.5	93.3838	-0.213623
46.6	93.9941	-0.183105
46.7	93.9941	-0.183105
46.8	93.9941	-0.213623
46.9	93.689	-0.152588
47	93.9941	-0.213623
47.1	93.9941	-0.213623
47.2	93.9941	-0.305176
47.3	93.9941	-0.274658
47.4	93.689	-0.183105
47.5	93.3838	-0.152588
47.6	93.689	-0.213623
47.7	93.9941	-0.244141
47.8	93.9941	-0.335693
47.9	93.689	-0.366211
48	93.689	-0.244141
48.1	93.9941	-0.213623
48.2	94.2993	-0.183105
48.3	94.2993	-0.183105
48.4	94.2993	-0.213623
48.5	94.2993	-0.152588
48.6	94.2993	-0.213623
48.7	93.9941	-0.213623
48.8	94.2993	-0.213623
48.9	93.9941	-0.244141
49	93.9941	-0.183105
49.1	94.2993	-0.244141
49.2	94.6045	-0.213623
49.3	94.2993	-0.244141
49.4	94.2993	-0.274658
49.5	94.2993	-0.305176
49.6	94.2993	-0.396729
49.7	94.2993	-0.244141
49.8	94.6045	-0.183105
49.9	93.9941	-0.274658
50	93.9941	-0.335693
50.1	94.2993	-0.244141
50.2	93.9941	-5.15747
50.3	74.1577	-5.18799
50.4	-156.86	-5.31006
50.5	-450.134	-5.24902
50.6	-512.39	-5.21851
50.7	-508.423	-5.12695
50.8	-511.475	-5.24902
50.9	-511.169	-5.27954
51	-510.559	-5.27954
51.1	-510.254	-5.15747
51.2	-509.644	-5.15747
51.3	-509.949	-5.18799
51.4	-510.254	-5.15747
51.5	-511.169	-5.27954
51.6	-511.169	-5.27954
51.7	-509.033	-5.31006
51.8	-508.728	-5.34058
51.9	-510.254	-5.24902
52	-510.864	-5.34058
52.1	-509.949	-5.24902
52.2	-509.338	-5.34058
52.3	-508.118	-5.27954
52.4	-507.507	-5.24902
52.5	-507.507	-5.37109
52.6	-508.728	-5.24902
52.7	-509.338	-5.31006
52.8	-509.338	-5.27954
52.9	-508.728	-5.18799
53	-507.813	-5.21851
53.1	-507.507	-5.18799
53.2	-508.423	-5.37109
53.3	-509.338	-5.27954
53.4	-509.949	-5.15747
53.5	-510.254	-5.24902
53.6	-510.559	-5.15747
53.7	-510.559	-5.15747
53.8	-509.949	-5.18799
53.9	-510.559	-5.15747
54	-510.864	-5.21851
54.1	-511.475	-5.15747
54.2	-512.085	-5.15747
54.3	-512.39	-5.21851
54.4	-512.695	-5.15747
54.5	-512.085	-5.15747
54.6	-512.39	-5.18799
54.7	-512.695	-5.18799
54.8	-513.306	-5.24902
54.9	-513.916	-5.18799
55	-513	-5.18799
55.1	-512.39	-5.18799
55.2	-511.78	-5.15747
55.3	-512.39	-5.15747
55.4	-513.611	-5.24902
55.5	-512.695	-5.18799
55.6	-511.475	-5.24902
55.7	-510.864	-5.27954
55.8	-509.949	-5.24902
55.9	-510.254	-5.37109
56	-509.949	-5.27954
56.1	-509.644	-5.21851
56.2	-510.559	-5.24902
56.3	-511.78	-5.12695
56.4	-511.475	-5.15747
56.5	-511.78	-5.18799
56.6	-510.559	-5.18799
56.7	-509.644	-5.27954
56.8	-509.033	-5.34058
56.9	-510.864	-5.24902
57	-511.78	-5.21851
57.1	-511.78	-5.18799
57.2	-510.559	-5.18799
57.3	-510.864	-5.34058
57.4	-510.864	-5.21851
57.5	-511.169	-5.15747
57.6	-510.559	-5.18799
57.7	-510.559	-5.15747
57.8	-511.169	-5.21851
57.9	-512.085	-5.24902
58	-513	-5.18799
58.1	-512.39	-5.24902
58.2	-511.169	-5.21851
58.3	-511.78	-5.21851
58.4	-512.39	-5.27954
58.5	-512.695	-5.24902
58.6	-512.39	-5.15747
58.7	-510.864	-5.18799
58.8	-508.728	-5.34058
58.9	-509.644	-5.18799
59	-510.864	-5.18799
59.1	-511.78	-5.18799
59.2	-511.78	-5.21851
59.3	-510.864	-5.34058
59.4	-511.475	-5.24902
59.5	-512.39	-5.18799
59.6	-512.085	-5.18799
59.7	-510.864	-5.27954
59.8	-510.254	-5.24902
59.9	-509.949	-5.24902
60	-511.475	-5.15747
60.1	-511.78	-10.1929
60.2	-526.428	-10.3455
60.3	-736.084	-10.1624
60.4	-1041.87	-10.1013
60.5	-1118.47	-10.2844
60.6	-1114.2	-10.2844
60.7	-1116.64	-10.1624
60.8	-1114.5	-10.1929
60.9	-1113.28	-10.2234
61	-1112.98	-10.2539
61.1	-1113.89	-10.1318
61.2	-1112.06	-10.2539
61.3	-1111.76	-10.2539
61.4	-1112.37	-10.1318
61.5	-1110.23	-10.2234
61.6	-1110.23	-10.0708
61.7	-1111.15	-10.1318
61.8	-1111.45	-10.1929
61.9	-1113.28	-10.1624
62	-1113.28	-10.1318
62.1	-1112.37	-10.1929
62.2	-1112.37	-10.3149
62.3	-1112.37	-10.1929
62.4	-1112.37	-10.2844
62.5	-1112.67	-10.2844
62.6	-1113.89	-10.1929
62.7	-1113.89	-10.1624
62.8	-1115.11	-10.1929
62.9	-1115.72	-10.2844
63	-1115.42	-10.1929
63.1	-1115.72	-10.1624
63.2	-1115.72	-10.1624
63.3	-1113.59	-10.1013
63.4	-1114.2	-10.1929
63.5	-1114.2	-10.2844
63.6	-1114.5	-10.2844
63.7	-1113.89	-10.2539
63.8	-1112.06	-10.3149
63.9	-1111.45	-10.2844
64	-1113.89	-10.2539
64.1	-1116.03	-10.2844
64.2	-1116.03	-10.2539
64.3	-1114.5	-10.1624
64.4	-1113.59	-10.1624
64.5	-1113.59	-10.1929
64.6	-1113.28	-10.2844
64.7	-1109.92	-10.2539
64.8	-1107.79	-10.2844
64.9	-1111.15	-10.2844
65	-1112.98	-10.2539
65.1	-1112.37	-10.2539
65.2	-1112.98	-10.2234
65.3	-1113.59	-10.2539
65.4	-1114.2	-10.1318
65.5	-1113.89	-10.1624
65.6	-1114.2	-10.1624
65.7	-1115.72	-10.1318
65.8	-1116.64	-10.1013
65.9	-1116.33	-10.1624
66	-1116.64	-10.1318
66.1	-1114.5	-10.1624
66.2	-1112.06	-10.2234
66.3	-1112.06	-10.2844
66.4	-1111.45	-10.2234
66.5	-1109.62	-10.1318
66.6	-1108.7	-10.1624
66.7	-1110.84	-10.3149
66.8	-1112.37	-10.2844
66.9	-1113.59	-10.2539
67	-1112.98	-10.2539
67.1	-1112.06	-10.2234
67.2	-1112.98	-10.1624
67.3	-1112.37	-10.1624
67.4	-1111.15	-10.1318
67.5	-1108.09	-10.1318
67.6	-1107.48	-10.1318
67.7	-1109.01	-10.1318
67.8	-1110.23	-10.1624
67.9	-1110.84	-10.1013
68	-1110.53	-10.1318
68.1	-1109.62	-10.1624
68.2	-1109.92	-10.1624
68.3	-1111.45	-10.1624
68.4	-1111.45	-10.2234
68.5	-1111.76	-10.2539
68.6	-1111.76	-10.2844
68.7	-1112.06	-10.2539
68.8	-1110.84	-10.2844
68.9	-1109.31	-10.2844
69	-1108.4	-10.2539
69.1	-1108.09	-10.1929
69.2	-1108.7	-10.2539
69.3	-1110.23	-10.1929
69.4	-1110.23	-10.2844
69.5	-1109.31	-10.3149
69.6	-1108.09	-10.3149
69.7	-1107.18	-10.1624
69.8	-1106.57	-10.1013
69.9	-1108.09	-10.1624
70	-1110.23	-10.1624
70.1	-1109.62	-10.1318
70.2	-1112.98	-15.1367
70.3	-1243.29	-15.2283
70.4	-1567.08	-15.2588
70.5	-1704.41	-15.2893
70.6	-1702.88	-15.3198
70.7	-1703.8	-15.2588
70.8	-1704.71	-15.2588
70.9	-1701.35	-15.2283
71	-1701.97	-15.2588
71.1	-1705.02	-15.2283
71.2	-1708.07	-15.1978
71.3	-1707.76	-15.1978
71.4	-1704.71	-15.1367
71.5	-1702.58	-15.1367
71.6	-1705.32	-15.1978
71.7	-1708.68	-15.1367
71.8	-1708.37	-15.1062
71.9	-1707.15	-15.1367
72	-1706.24	-15.1367
72.1	-1706.54	-15.1978
72.2	-1707.76	-15.2588
72.3	-1707.15	-15.2893
72.4	-1708.37	-15.2283
72.5	-1708.37	-15.1672
72.6	-1706.85	-15.1978
72.7	-1705.93	-15.1062
72.8	-1705.63	-15.1062
72.9	-1703.8	-15.1672
73	-1705.02	-15.1367
73.1	-1709.59	-15.1367
73.2	-1708.07	-15.1367
73.3	-1704.71	-15.1367
73.4	-1705.02	-15.0452
73.5	-1706.24	-15.1672
73.6	-1705.02	-15.1978
73.7	-1705.63	-15.1672
73.8	-1703.49	-15.1978
73.9	-1705.63	-15.1978
74	-1706.85	-15.1367
74.1	-1705.02	-15.1062
74.2	-1703.19	-15.1672
74.3	-1702.58	-15.1062
74.4	-1703.19	-15.1367
74.5	-1705.63	-15.1978
74.6	-1708.37	-15.2588
74.7	-1708.98	-15.2893
74.8	-1707.15	-15.2588
74.9	-1706.85	-15.2283
75	-1706.24	-15.1978
75.1	-1705.02	-15.1367
75.2	-1708.07	-15.3198
75.3	-1708.37	-15.1978
75.4	-1708.37	-15.1672
75.5	-1708.07	-15.1978
75.6	-1706.24	-15.1062
75.7	-1703.49	-15.1062
75.8	-1700.74	-15.2283
75.9	-1700.74	-15.2588
76	-1702.58	-15.1367
76.1	-1704.1	-15.1367
76.2	-1703.19	-15.1978
76.3	-1703.8	-15.2588
76.4	-1702.88	-15.3198
76.5	-1703.19	-15.2588
76.6	-1704.71	-15.1978
76.7	-1705.02	-15.1367
76.8	-1704.71	-15.0757
76.9	-1704.71	-15.1367
77	-1705.63	-15.1672
77.1	-1704.71	-15.1062
77.2	-1701.35	-15.1367
77.3	-1699.83	-15.2283
77.4	-1699.83	-15.1978
77.5	-1701.66	-15.1672
77.6	-1701.66	-15.2588
77.7	-1699.83	-15.2588
77.8	-1699.83	-15.2588
77.9	-1702.88	-15.1978
78	-1702.88	-15.1672
78.1	-1704.71	-15.1062
78.2	-1707.76	-15.1367
78.3	-1708.98	-15.1672
78.4	-1707.15	-15.1672
78.5	-1702.88	-15.2283
78.6	-1699.83	-15.2588
78.7	-1699.52	-15.2283
78.8	-1699.22	-15.2893
78.9	-1699.83	-15.3503
79	-1699.83	-15.1978
79.1	-1700.44	-15.2893
79.2	-1701.66	-15.2893
79.3	-1701.05	-15.1062
79.4	-1704.1	-15.1367
79.5	-1707.46	-15.1672
79.6	-1709.9	-15.1672
79.7	-1710.21	-15.2893
79.8	-1710.21	-15.1672
79.9	-1707.46	-15.1367
80	-1705.02	-15.2283
80.1	-1704.71	-15.2283
80.2	-1705.63	-20.2942
80.3	-1771.24	-20.3247
80.4	-2069.4	-20.2637
80.5	-2275.39	-20.1416
80.6	-2286.68	-20.1416
80.7	-2280.27	-20.1416
80.8	-2280.88	-20.1416
80.9	-2283.33	-20.1416
81	-2283.94	-20.1416
81.1	-2285.16	-20.1111
81.2	-2284.55	-20.1721
81.3	-2286.99	-20.1111
81.4	-2287.9	-20.1111
81.5	-2283.63	-20.1721
81.6	-2283.63	-20.1416
81.7	-2286.68	-20.1416
81.8	-2288.51	-20.2026
81.9	-2288.21	-20.2026
82	-2289.73	-20.2026
82.1	-2291.26	-20.2332
82.2	-2290.65	-20.2026
82.3	-2291.87	-20.2637
82.4	-2289.43	-20.2026
82.5	-2288.51	-20.2942
82.6	-2291.56	-20.2332
82.7	-2293.4	-20.2637
82.8	-2292.18	-20.2637
82.9	-2290.04	-20.2332
83	-2287.29	-20.1721
83.1	-2288.82	-20.1721
83.2	-2287.29	-20.2026
83.3	-2286.68	-20.1721
83.4	-2285.46	-20.2332
83.5	-2284.85	-20.1721
83.6	-2286.68	-20.1416
83.7	-2287.9	-20.2026
83.8	-2287.9	-20.1416
83.9	-2286.99	-20.2637
84	-2289.12	-20.2942
84.1	-2287.29	-20.2637
84.2	-2283.33	-20.1111
84.3	-2282.71	-20.1416
84.4	-2283.02	-20.2026
84.5	-2285.16	-20.2332
84.6	-2286.68	-20.2637
84.7	-2288.82	-20.2637
84.8	-2289.12	-20.1721
84.9	-2289.43	-20.1416
85	-2286.07	-20.1416
85.1	-2286.38	-20.2026
85.2	-2287.9	-20.2637
85.3	-2286.38	-20.3247
85.4	-2284.85	-20.2637
85.5	-2283.63	-20.2637
85.6	-2284.24	-20.2332
85.7	-2282.41	-20.1416
85.8	-2281.49	-20.1111
85.9	-2280.88	-20.2026
86	-2279.97	-20.2332
86.1	-2279.97	-20.2942
86.2	-2280.58	-20.2332
86.3	-2281.8	-20.2637
86.4	-2280.88	-20.1721
86.5	-2280.58	-20.1721
86.6	-2282.41	-20.1416
86.7	-2284.24	-20.1416
86.8	-2281.8	-20.1416
86.9	-2282.1	-20.1111
87	-2280.88	-20.2026
87.1	-2280.58	-20.2026
87.2	-2283.63	-20.2332
87.3	-2280.58	-20.3247
87.4	-2274.78	-20.1721
