ATF	1.0
7	3     
"AcquisitionMode=Gap Free"
"Comment="
"YTop=10000,1000"
"YBottom=-10000,-1000"
"SweepStartTimesMS=0.000"
"SignalsExported=Im_Scaled,10_mv"
"Signals="	"Im_Scaled"	"10_mv"
"Time (s)"	"Trace #1 (pA)"	"Trace #1 (mV)"
0	1260.38	19.7449
0.1	1269.23	19.7449
0.2	1275.33	19.7754
0.3	1268.62	19.5923
0.4	1256.41	19.7754
0.5	1255.8	19.6533
0.6	1259.46	19.7449
0.7	1253.97	19.6228
0.8	1244.81	19.8059
0.9	1235.96	19.6533
1	1235.05	19.8059
1.1	1239.01	19.6533
1.2	1248.47	19.8059
1.3	1260.38	19.6533
1.4	1261.6	19.7449
1.5	1257.02	19.6838
1.6	1252.14	19.7144
1.7	1252.44	19.6838
1.8	1242.07	19.8364
1.9	1234.44	19.6228
2	1235.96	19.8364
2.1	1239.32	19.7144
2.2	1246.03	19.7754
2.3	1255.19	19.6533
2.4	1264.04	19.7754
2.5	1266.78	19.6228
2.6	1259.77	19.7449
2.7	1258.24	19.7144
2.8	1256.71	19.6838
2.9	1247.86	19.7754
3	1250.92	19.6228
3.1	1267.09	19.8364
3.2	1275.94	19.6838
3.3	1271.36	19.7754
3.4	1262.21	19.7144
3.5	1257.02	19.6533
3.6	1258.85	19.7144
3.7	1256.71	19.5923
3.8	1262.21	19.7449
3.9	1274.11	19.6533
4	1266.48	19.7449
4.1	1254.58	19.8059
4.2	1252.44	19.7754
4.3	1249.69	19.6533
4.4	1254.58	19.6533
4.5	1260.07	19.7754
4.6	1257.02	19.7449
4.7	1258.85	19.6533
4.8	1259.16	19.6533
4.9	1256.41	19.7754
5	1261.6	19.7449
5.1	1266.78	19.6533
5.2	1267.7	19.7449
5.3	1261.29	19.8059
5.4	1253.36	19.7754
5.5	1263.43	19.6838
5.6	1277.16	19.7449
5.7	1273.8	19.6228
5.8	1272.89	19.6228
5.9	1268.92	19.7754
6	1256.1	19.7449
6.1	1259.16	19.6533
6.2	1251.22	19.8059
6.3	1239.01	19.7144
6.4	1257.63	19.6533
6.5	1264.34	19.7754
6.6	1254.88	19.7449
6.7	1253.97	19.7449
6.8	1255.49	19.5923
6.9	1257.32	19.7144
7	1254.88	19.7754
7.1	1254.88	19.7144
7.2	1250.92	19.7144
7.3	1250	19.7754
7.4	1253.36	19.8059
7.5	1256.1	19.7449
7.6	1250.92	19.6228
7.7	1247.25	19.7144
7.8	1236.27	19.6838
7.9	1238.1	19.6533
8	1253.97	19.7754
8.1	1260.07	19.7449
8.2	1260.99	19.8059
8.3	1264.65	19.6838
8.4	1263.12	19.7449
8.5	1258.85	19.7754
8.6	1254.27	19.7449
8.7	1241.15	19.6228
8.8	1241.46	19.6533
8.9	1250	19.7754
9	1242.37	19.6838
9.1	1242.37	19.8059
9.2	1246.95	19.6838
9.3	1249.08	19.7144
9.4	1251.53	19.7449
9.5	1247.86	19.7449
9.6	1252.44	19.7449
9.7	1253.66	19.6228
9.8	1254.88	19.7449
9.9	1253.66	19.6533
10	1251.83	19.7144
10.1	1246.03	14.7705
10.2	1242.07	14.679
10.3	1135.56	14.7705
10.4	958.557	14.7095
10.5	917.969	14.801
10.6	933.838	14.679
10.7	933.228	14.7705
10.8	931.091	14.6179
10.9	936.89	14.74
11	934.448	14.679
11.1	931.396	14.679
11.2	938.721	14.7705
11.3	937.5	14.679
11.4	934.448	14.801
11.5	935.364	14.7095
11.6	931.091	14.6179
11.7	928.955	14.7705
11.8	926.819	14.7095
11.9	926.819	14.6179
12	927.734	14.74
12.1	923.767	14.7705
12.2	930.786	14.7705
12.3	935.974	14.7095
12.4	939.026	14.7095
12.5	937.5	14.7705
12.6	931.702	14.679
12.7	928.345	14.7705
12.8	931.702	14.6484
12.9	930.786	14.7095
13	927.429	14.6484
13.1	931.702	14.7705
13.2	938.416	14.6484
13.3	939.636	14.801
13.4	934.753	14.74
13.5	932.922	14.7705
13.6	934.448	14.7705
13.7	937.805	14.6484
13.8	934.448	14.801
13.9	930.481	14.679
14	925.903	14.6179
14.1	917.053	14.7095
14.2	917.053	14.6179
14.3	923.767	14.7705
14.4	935.974	14.6484
14.5	939.331	14.74
14.6	935.364	14.7705
14.7	933.228	14.679
14.8	929.26	14.7705
14.9	932.617	14.679
15	933.838	14.7705
15.1	931.396	14.6484
15.2	939.026	14.6484
15.3	944.214	14.74
15.4	941.772	14.6179
15.5	936.89	14.7095
15.6	943.604	14.7705
15.7	945.74	14.6484
15.8	942.383	14.7095
15.9	940.247	14.801
16	940.247	14.679
16.1	933.533	14.7095
16.2	936.584	14.801
16.3	940.552	14.74
16.4	935.974	14.6179
16.5	935.059	14.7095
16.6	937.805	14.7095
16.7	937.195	14.6484
16.8	924.072	14.801
16.9	921.936	14.7705
17	927.429	14.6484
17.1	944.214	14.7705
17.2	951.538	14.801
17.3	942.688	14.6484
17.4	938.11	14.74
17.5	944.214	14.74
17.6	943.298	14.6484
17.7	931.091	14.5874
17.8	930.176	14.7095
17.9	938.721	14.7705
18	935.059	14.7095
18.1	939.941	14.6179
18.2	942.993	14.7095
18.3	942.383	14.801
18.4	944.824	14.74
18.5	942.688	14.6484
18.6	934.143	14.74
18.7	930.176	14.74
18.8	924.988	14.6484
18.9	922.852	14.679
19	926.514	14.7705
19.1	932.617	14.74
19.2	936.89	14.6484
19.3	935.364	14.74
19.4	924.072	14.8315
19.5	914.001	14.7705
19.6	914.612	14.6484
19.7	925.903	14.7705
19.8	934.143	14.74
19.9	933.228	14.679
20	932.312	14.7705
20.1	935.364	14.7705
20.2	938.721	14.74
20.3	940.857	9.67407
20.4	909.119	9.61304
20.5	751.953	9.67407
20.6	633.545	9.73511
20.7	624.084	9.70459
20.8	621.033	9.61304
20.9	615.845	9.70459
21	616.455	9.79614
21.1	612.183	9.79614
21.2	618.286	9.67407
21.3	624.695	9.73511
21.4	626.221	9.79614
21.5	625.305	9.64355
21.6	622.253	9.79614
21.7	625.61	9.70459
21.8	625.61	9.76563
21.9	625.305	9.70459
22	629.578	9.73511
22.1	636.292	9.73511
22.2	631.714	9.67407
22.3	623.169	9.76563
22.4	625.305	9.58252
22.5	628.052	9.76563
22.6	626.221	9.70459
22.7	622.559	9.61304
22.8	620.728	9.79614
22.9	624.695	9.70459
23	620.728	9.67407
23.1	618.896	9.82666
23.2	622.864	9.73511
23.3	621.338	9.70459
23.4	621.643	9.79614
23.5	621.643	9.73511
23.6	625.61	9.64355
23.7	630.493	9.70459
23.8	627.747	9.76563
23.9	625.916	9.73511
24	627.136	9.58252
24.1	625.916	9.70459
24.2	625.61	9.73511
24.3	628.052	9.70459
24.4	627.136	9.61304
24.5	627.441	9.79614
24.6	627.441	9.67407
24.7	621.948	9.76563
24.8	619.812	9.76563
24.9	620.422	9.64355
25	620.117	9.79614
25.1	620.117	9.64355
25.2	620.422	9.76563
25.3	618.286	9.67407
25.4	616.15	9.76563
25.5	618.896	9.64355
25.6	619.812	9.73511
25.7	627.136	9.61304
25.8	635.986	9.76563
25.9	625.305	9.64355
26	617.371	9.76563
26.1	615.54	9.67407
26.2	612.183	9.79614
26.3	617.676	9.73511
26.4	623.169	9.76563
26.5	628.357	9.79614
26.6	624.695	9.67407
26.7	621.948	9.79614
26.8	624.084	9.67407
26.9	624.084	9.79614
27	620.117	9.73511
27.1	620.728	9.70459
27.2	625.916	9.82666
27.3	628.662	9.61304
27.4	623.169	9.76563
27.5	628.052	9.64355
27.6	632.935	9.73511
27.7	626.221	9.67407
27.8	629.272	9.73511
27.9	636.597	9.73511
28	629.578	9.70459
28.1	628.357	9.79614
28.2	626.221	9.64355
28.3	623.779	9.79614
28.4	628.967	9.64355
28.5	632.019	9.76563
28.6	628.052	9.76563
28.7	623.779	9.70459
28.8	622.559	9.76563
28.9	626.221	9.67407
29	627.136	9.76563
29.1	627.136	9.73511
29.2	623.169	9.70459
29.3	625.61	9.61304
29.4	628.967	9.73511
29.5	628.052	9.73511
29.6	627.441	9.67407
29.7	627.136	9.73511
29.8	626.221	9.67407
29.9	632.324	9.76563
30	635.986	9.76563
30.1	636.597	9.64355
30.2	635.376	4.85229
30.3	598.45	4.69971
30.4	444.946	4.82178
30.5	346.069	4.76074
30.6	338.135	4.76074
30.7	334.778	4.76074
30.8	330.505	4.69971
30.9	329.59	4.79126
31	328.674	4.63867
31.1	327.148	4.82178
31.2	329.895	4.66919
31.3	333.557	4.82178
31.4	334.473	4.63867
31.5	335.693	4.79126
31.6	337.219	4.69971
31.7	339.355	4.76074
31.8	339.355	4.76074
31.9	334.778	4.69971
32	332.031	4.85229
32.1	331.421	4.69971
32.2	334.473	4.79126
32.3	335.999	4.79126
32.4	335.083	4.66919
32.5	334.167	4.85229
32.6	335.693	4.69971
32.7	332.947	4.79126
32.8	333.252	4.76074
32.9	336.609	4.66919
33	334.778	4.82178
33.1	335.999	4.76074
33.2	337.219	4.63867
33.3	334.167	4.76074
33.4	334.473	4.76074
33.5	333.862	4.66919
33.6	334.167	4.82178
33.7	334.167	4.82178
33.8	334.167	4.63867
33.9	334.167	4.82178
34	332.336	4.82178
34.1	330.811	4.69971
34.2	330.2	4.76074
34.3	329.895	4.82178
34.4	331.421	4.76074
34.5	332.642	4.69971
34.6	332.642	4.76074
34.7	331.421	4.76074
34.8	333.557	4.63867
34.9	333.557	4.69971
35	331.116	4.76074
35.1	334.473	4.79126
35.2	334.778	4.69971
35.3	330.811	4.66919
35.4	332.031	4.82178
35.5	332.947	4.82178
35.6	331.421	4.69971
35.7	331.421	4.76074
35.8	328.064	4.79126
35.9	325.317	4.76074
36	325.623	4.66919
36.1	327.759	4.82178
36.2	330.2	4.66919
36.3	331.421	4.66919
36.4	331.116	4.79126
36.5	333.252	4.73022
36.6	332.336	4.63867
36.7	332.642	4.79126
36.8	335.083	4.76074
36.9	330.505	4.69971
37	327.759	4.73022
37.1	329.285	4.85229
37.2	332.031	4.79126
37.3	332.031	4.73022
37.4	330.811	4.73022
37.5	330.811	4.82178
37.6	337.524	4.69971
37.7	337.524	4.79126
37.8	335.083	4.82178
37.9	335.083	4.66919
38	333.557	4.76074
38.1	326.233	4.76074
38.2	328.369	4.63867
38.3	331.116	4.79126
38.4	331.726	4.76074
38.5	333.252	4.66919
38.6	332.336	4.82178
38.7	335.388	4.76074
38.8	339.966	4.85229
38.9	339.355	4.69971
39	333.862	4.85229
39.1	330.811	4.69971
39.2	332.031	4.82178
39.3	333.252	4.66919
39.4	329.285	4.85229
39.5	324.707	4.73022
39.6	324.097	4.82178
39.7	325.317	4.73022
39.8	325.623	4.73022
39.9	324.707	4.73022
40	325.623	4.63867
40.1	325.317	-0.305176
40.2	324.707	-0.213623
40.3	256.958	-0.335693
40.4	113.831	-0.183105
40.5	63.1714	-0.274658
40.6	65.6128	-0.213623
40.7	65.0024	-0.213623
40.8	65.0024	-0.213623
40.9	64.0869	-0.244141
41	64.3921	-0.183105
41.1	65.3076	-0.366211
41.2	65.3076	-0.213623
41.3	65.6128	-0.335693
41.4	64.6973	-0.183105
41.5	64.6973	-0.366211
41.6	64.6973	-0.244141
41.7	64.3921	-0.274658
41.8	64.3921	-0.213623
41.9	64.3921	-0.183105
42	65.0024	-0.335693
42.1	64.6973	-0.152588
42.2	64.0869	-0.213623
42.3	65.0024	-0.305176
42.4	65.3076	-0.183105
42.5	64.6973	-0.213623
42.6	64.3921	-0.244141
42.7	64.3921	-0.274658
42.8	64.6973	-0.366211
42.9	64.3921	-0.274658
43	64.3921	-0.244141
43.1	64.6973	-0.335693
43.2	64.6973	-0.213623
43.3	64.6973	-0.152588
43.4	65.0024	-0.305176
43.5	65.0024	-0.152588
43.6	65.3076	-0.213623
43.7	65.6128	-0.274658
43.8	63.7817	-0.183105
43.9	64.0869	-0.335693
44	65.3076	-0.305176
44.1	64.6973	-0.244141
44.2	63.7817	-0.244141
44.3	63.7817	-0.244141
44.4	64.0869	-0.274658
44.5	63.4766	-0.244141
44.6	63.1714	-0.274658
44.7	63.7817	-0.335693
44.8	64.0869	-0.244141
44.9	64.6973	-0.183105
45	65.0024	-0.244141
45.1	64.0869	-0.335693
45.2	63.1714	-0.213623
45.3	62.8662	-0.274658
45.4	63.4766	-0.335693
45.5	64.0869	-0.183105
45.6	63.7817	-0.183105
45.7	63.7817	-0.305176
45.8	63.4766	-0.305176
45.9	63.4766	-0.213623
46	63.4766	-0.183105
46.1	63.7817	-0.244141
46.2	63.7817	-0.366211
46.3	64.0869	-0.244141
46.4	65.0024	-0.244141
46.5	64.6973	-0.366211
46.6	64.0869	-0.305176
46.7	63.1714	-0.213623
46.8	63.7817	-0.274658
46.9	63.7817	-0.183105
47	63.7817	-0.335693
47.1	64.3921	-0.152588
47.2	64.3921	-0.183105
47.3	63.7817	-0.396729
47.4	63.7817	-0.335693
47.5	63.1714	-0.213623
47.6	63.7817	-0.183105
47.7	63.7817	-0.213623
47.8	63.4766	-0.274658
47.9	62.561	-0.305176
48	62.561	-0.213623
48.1	63.1714	-0.183105
48.2	63.1714	-0.305176
48.3	63.1714	-0.213623
48.4	63.4766	-0.244141
48.5	64.0869	-0.366211
48.6	63.1714	-0.274658
48.7	62.8662	-0.213623
48.8	63.4766	-0.305176
48.9	63.7817	-0.244141
49	63.7817	-0.213623
49.1	64.3921	-0.305176
49.2	64.0869	-0.183105
49.3	63.7817	-0.335693
49.4	63.7817	-0.213623
49.5	65.0024	-0.335693
49.6	64.6973	-0.274658
49.7	63.4766	-0.366211
49.8	63.1714	-0.244141
49.9	63.7817	-0.305176
50	63.7817	-0.152588
50.1	63.4766	-0.152588
50.2	63.7817	-5.31006
50.3	53.1006	-5.15747
50.4	-41.5039	-5.18799
50.5	-142.517	-5.31006
50.6	-157.776	-5.18799
50.7	-156.86	-5.37109
50.8	-162.048	-5.18799
50.9	-161.743	-5.27954
51	-159.912	-5.21851
51.1	-159.607	-5.18799
51.2	-158.386	-5.21851
51.3	-158.386	-5.12695
51.4	-157.776	-5.31006
51.5	-155.64	-5.15747
51.6	-155.029	-5.27954
51.7	-155.334	-5.18799
51.8	-156.25	-5.21851
51.9	-156.25	-5.31006
52	-157.776	-5.15747
52.1	-157.471	-5.21851
52.2	-156.25	-5.27954
52.3	-154.724	-5.15747
52.4	-155.334	-5.12695
52.5	-156.555	-5.24902
52.6	-155.945	-5.18799
52.7	-156.25	-5.15747
52.8	-155.029	-5.27954
52.9	-155.029	-5.12695
53	-155.334	-5.24902
53.1	-152.893	-5.27954
53.2	-155.945	-5.21851
53.3	-156.555	-5.31006
53.4	-152.893	-5.18799
53.5	-151.672	-5.18799
53.6	-152.588	-5.31006
53.7	-152.588	-5.12695
53.8	-152.893	-5.27954
53.9	-156.25	-5.15747
54	-158.691	-5.31006
54.1	-157.776	-5.18799
54.2	-155.029	-5.31006
54.3	-155.334	-5.21851
54.4	-156.25	-5.21851
54.5	-156.25	-5.31006
54.6	-158.691	-5.12695
54.7	-158.081	-5.24902
54.8	-157.776	-5.15747
54.9	-156.25	-5.31006
55	-157.471	-5.18799
55.1	-158.386	-5.34058
55.2	-156.86	-5.21851
55.3	-155.945	-5.27954
55.4	-155.334	-5.18799
55.5	-154.114	-5.31006
55.6	-153.503	-5.15747
55.7	-154.114	-5.18799
55.8	-153.809	-5.27954
55.9	-155.334	-5.18799
56	-157.166	-5.31006
56.1	-158.997	-5.18799
56.2	-157.776	-5.34058
56.3	-154.114	-5.15747
56.4	-152.588	-5.24902
56.5	-155.945	-5.24902
56.6	-157.166	-5.12695
56.7	-155.64	-5.21851
56.8	-154.419	-5.27954
56.9	-156.86	-5.12695
57	-158.997	-5.27954
57.1	-157.776	-5.18799
57.2	-154.419	-5.31006
57.3	-155.029	-5.21851
57.4	-156.555	-5.31006
57.5	-155.64	-5.18799
57.6	-155.334	-5.27954
57.7	-155.64	-5.15747
57.8	-155.029	-5.24902
57.9	-154.724	-5.24902
58	-155.029	-5.18799
58.1	-155.945	-5.12695
58.2	-154.419	-5.31006
58.3	-155.945	-5.18799
58.4	-155.945	-5.34058
58.5	-155.64	-5.21851
58.6	-155.64	-5.31006
58.7	-153.198	-5.18799
58.8	-153.198	-5.24902
58.9	-154.419	-5.21851
59	-155.029	-5.12695
59.1	-153.503	-5.31006
59.2	-153.503	-5.15747
59.3	-154.114	-5.18799
59.4	-154.114	-5.31006
59.5	-155.64	-5.21851
59.6	-153.809	-5.34058
59.7	-152.588	-5.18799
59.8	-154.114	-5.34058
59.9	-153.503	-5.15747
60	-152.893	-5.15747
60.1	-155.029	-5.21851
60.2	-158.997	-10.1013
60.3	-179.443	-10.1929
60.4	-270.996	-10.1318
60.5	-323.486	-10.2539
60.6	-324.707	-10.1624
60.7	-330.2	-10.2539
60.8	-332.642	-10.2539
60.9	-332.336	-10.1929
61	-333.557	-10.2539
61.1	-335.999	-10.1318
61.2	-332.336	-10.2539
61.3	-330.2	-10.1318
61.4	-332.336	-10.2539
61.5	-330.2	-10.1013
61.6	-323.792	-10.1624
61.7	-330.811	-10.2539
61.8	-335.083	-10.1929
61.9	-332.947	-10.2234
62	-332.642	-10.2234
62.1	-330.505	-10.2539
62.2	-328.674	-10.1013
62.3	-329.285	-10.2844
62.4	-331.726	-10.0708
62.5	-328.674	-10.1929
62.6	-323.181	-10.2234
62.7	-322.571	-10.2234
62.8	-327.454	-10.1624
62.9	-334.167	-10.2234
63	-334.167	-10.1624
63.1	-332.031	-10.2844
63.2	-337.524	-10.1318
63.3	-339.05	-10.2234
63.4	-337.219	-10.2539
63.5	-333.252	-10.1013
63.6	-332.031	-10.2539
63.7	-330.2	-10.1624
63.8	-327.759	-10.3149
63.9	-329.895	-10.1318
64	-331.116	-10.2539
64.1	-329.59	-10.1013
64.2	-330.811	-10.2539
64.3	-329.895	-10.1929
64.4	-325.623	-10.1624
64.5	-320.74	-10.2844
64.6	-318.909	-10.1318
64.7	-319.824	-10.3149
64.8	-324.097	-10.1318
64.9	-325.317	-10.2844
65	-326.538	-10.1624
65.1	-325.928	-10.1624
65.2	-321.35	-10.2539
65.3	-319.519	-10.1318
65.4	-326.233	-10.2234
65.5	-327.454	-10.1318
65.6	-322.266	-10.2844
65.7	-321.655	-10.1929
65.8	-326.233	-10.2844
65.9	-328.369	-10.1624
66	-325.623	-10.2539
66.1	-320.74	-10.1318
66.2	-318.604	-10.2844
66.3	-322.571	-10.1318
66.4	-325.928	-10.2539
66.5	-331.726	-10.1013
66.6	-330.505	-10.3149
66.7	-324.097	-10.1929
66.8	-325.928	-10.2539
66.9	-329.285	-10.2539
67	-329.895	-10.1013
67.1	-325.317	-10.2844
67.2	-321.655	-10.1624
67.3	-323.486	-10.2539
67.4	-326.843	-10.1318
67.5	-324.097	-10.2539
67.6	-319.824	-10.1318
67.7	-317.993	-10.2539
67.8	-318.604	-10.1318
67.9	-322.571	-10.2844
68	-320.435	-10.1318
68.1	-316.467	-10.2844
68.2	-319.824	-10.1624
68.3	-322.266	-10.2234
68.4	-321.96	-10.2234
68.5	-319.824	-10.0708
68.6	-317.993	-10.2234
68.7	-318.604	-10.3149
68.8	-321.655	-10.1929
68.9	-322.266	-10.2539
69	-324.402	-10.2539
69.1	-325.928	-10.1318
69.2	-322.266	-10.2539
69.3	-319.519	-10.1013
69.4	-321.35	-10.2539
69.5	-325.623	-10.1318
69.6	-325.928	-10.2844
69.7	-326.843	-10.1929
69.8	-326.233	-10.2844
69.9	-323.181	-10.1929
70	-321.96	-10.2539
70.1	-321.96	-10.1929
70.2	-323.792	-10.1929
70.3	-323.486	-15.1367
70.4	-338.745	-15.2283
70.5	-405.273	-15.1978
70.6	-451.05	-15.1062
70.7	-455.322	-15.2588
70.8	-455.322	-15.1367
70.9	-450.745	-15.1367
71	-447.083	-15.3198
71.1	-444.336	-15.1367
71.2	-448.608	-15.2283
71.3	-452.271	-15.1978
71.4	-454.407	-15.1367
71.5	-451.66	-15.2588
71.6	-453.186	-15.1062
71.7	-451.66	-15.2588
71.8	-452.271	-15.1367
71.9	-447.998	-15.1672
72	-448.914	-15.2893
72.1	-450.439	-15.1978
72.2	-449.524	-15.1367
72.3	-441.589	-15.2893
72.4	-439.453	-15.2283
72.5	-448.914	-15.1978
72.6	-459.29	-15.3198
72.7	-458.069	-15.1672
72.8	-453.186	-15.2588
72.9	-451.05	-15.1367
73	-450.439	-15.2588
73.1	-441.589	-15.1367
73.2	-438.843	-15.2283
73.3	-442.81	-15.1672
73.4	-440.979	-15.1062
73.5	-429.688	-15.2588
73.6	-433.655	-15.1367
73.7	-444.946	-15.2893
73.8	-448.914	-15.1672
73.9	-443.115	-15.2588
74	-443.115	-15.2588
74.1	-445.557	-15.1672
74.2	-441.284	-15.2588
74.3	-438.232	-15.2283
74.4	-437.317	-15.2893
74.5	-440.979	-15.1672
74.6	-442.505	-15.2893
74.7	-443.726	-15.1367
74.8	-443.115	-15.2283
74.9	-441.284	-15.2283
75	-442.505	-15.1062
75.1	-446.167	-15.1978
75.2	-450.745	-15.1367
75.3	-448.914	-15.2588
75.4	-440.674	-15.1062
75.5	-445.557	-15.2588
75.6	-451.355	-15.1367
75.7	-444.031	-15.2588
75.8	-449.524	-15.1367
75.9	-442.2	-15.2283
76	-431.824	-15.2588
76.1	-436.707	-15.1367
76.2	-437.622	-15.2283
76.3	-433.96	-15.2283
76.4	-428.467	-15.1978
76.5	-431.824	-15.1978
76.6	-433.35	-15.2283
76.7	-437.622	-15.1978
76.8	-441.284	-15.2283
76.9	-436.096	-15.2283
77	-435.791	-15.1672
77.1	-438.843	-15.2588
77.2	-440.369	-15.2588
77.3	-442.2	-15.1672
77.4	-439.148	-15.2283
77.5	-428.467	-15.1672
77.6	-429.382	-15.1062
77.7	-433.655	-15.2588
77.8	-428.772	-15.1367
77.9	-427.246	-15.2283
78	-423.889	-15.1367
78.1	-428.162	-15.1672
78.2	-441.284	-15.2588
78.3	-444.641	-15.0757
78.4	-432.739	-15.2893
78.5	-432.739	-15.1367
78.6	-439.453	-15.2283
78.7	-437.012	-15.1672
78.8	-435.181	-15.1367
78.9	-438.232	-15.2893
79	-435.791	-15.1062
79.1	-431.519	-15.1978
79.2	-435.486	-15.1672
79.3	-430.908	-15.2283
79.4	-429.077	-15.1672
79.5	-428.467	-15.2893
79.6	-423.889	-15.1672
79.7	-426.025	-15.1672
79.8	-435.181	-15.2893
79.9	-435.791	-15.1672
80	-433.044	-15.2588
80.1	-429.382	-15.2283
80.2	-424.5	-20.1416
80.3	-434.265	-20.1416
80.4	-482.788	-20.1416
80.5	-527.649	-20.2026
80.6	-531.616	-20.0806
80.7	-525.208	-20.2637
80.8	-515.747	-20.1416
80.9	-509.033	-20.2332
81	-520.935	-20.1416
81.1	-520.63	-20.1111
81.2	-518.188	-20.2637
81.3	-520.02	-20.1721
81.4	-516.052	-20.2942
81.5	-509.033	-20.1416
81.6	-512.085	-20.2637
81.7	-519.714	-20.2026
81.8	-516.968	-20.2332
81.9	-511.169	-20.2942
82	-510.864	-20.1721
82.1	-516.663	-20.2332
82.2	-517.273	-20.2026
82.3	-503.54	-20.1721
82.4	-499.573	-20.1721
82.5	-509.644	-20.2332
82.6	-507.507	-20.1111
82.7	-500.793	-20.2026
82.8	-498.047	-20.1416
82.9	-498.657	-20.2332
83	-508.728	-20.1111
83.1	-521.545	-20.2332
83.2	-509.949	-20.1416
83.3	-495.3	-20.2332
83.4	-500.488	-20.1721
83.5	-510.559	-20.1416
83.6	-508.423	-20.2332
83.7	-506.897	-20.1416
83.8	-510.864	-20.2942
83.9	-503.845	-20.1721
84	-499.573	-20.1721
84.1	-498.657	-20.2942
84.2	-502.014	-20.1721
84.3	-501.404	-20.2637
84.4	-504.761	-20.2026
84.5	-511.78	-20.1721
84.6	-504.15	-20.2332
84.7	-501.404	-20.1111
84.8	-501.709	-20.2637
84.9	-501.099	-20.1111
85	-501.404	-20.2637
85.1	-500.183	-20.1721
85.2	-505.066	-20.1721
85.3	-496.216	-20.2026
85.4	-500.793	-20.1721
85.5	-509.033	-20.1111
85.6	-492.859	-20.1721
85.7	-489.807	-20.2637
85.8	-498.047	-20.2026
85.9	-503.54	-20.1416
86	-506.592	-20.2332
86.1	-505.676	-20.2942
86.2	-502.319	-20.1416
86.3	-509.033	-20.1721
86.4	-513.916	-20.2942
86.5	-508.423	-20.1416
86.6	-500.793	-20.2332
86.7	-495.3	-20.2332
86.8	-495.3	-20.1416
86.9	-489.807	-20.1111
87	-483.704	-20.2637
87.1	-485.229	-20.1111
87.2	-495.605	-20.2026
87.3	-501.709	-20.2332
